Frequency (Hz)	Level (dB)
86.132813	-60.486301
172.265625	-60.981659
258.398438	-64.162926
344.531250	-66.934158
430.664063	-69.093102
516.796875	-67.941742
602.929688	-67.444817
689.062500	-68.474159
775.195313	-70.307716
861.328125	-72.398430
947.460938	-74.539680
1033.593750	-76.993958
1119.726563	-74.527885
1205.859375	-68.096413
1291.992188	-57.614410
1378.125000	-55.005066
1464.257813	-59.544376
1550.390625	-62.331841
1636.523438	-65.938850
1722.656250	-70.624466
1808.789063	-75.327736
1894.921875	-78.519440
1981.054688	-76.208313
2067.187500	-77.690872
2153.320313	-75.112602
2239.453125	-70.765373
2325.585938	-75.004044
2411.718750	-76.067673
2497.851563	-75.504784
2583.984375	-73.357536
2670.117188	-72.005295
2756.250000	-72.414482
2842.382813	-73.416809
2928.515625	-74.688736
3014.648438	-76.788300
3100.781250	-79.712021
3186.914063	-72.192047
3273.046875	-66.136757
3359.179688	-63.071823
3445.312500	-66.692673
3531.445313	-73.549675
3617.578125	-74.214966
3703.710938	-71.907433
3789.843750	-70.772247
3875.976563	-68.096008
3962.109375	-66.997604
4048.242188	-66.474083
4134.375000	-65.989326
4220.507813	-67.569824
4306.640625	-67.974655
4392.773438	-67.401192
4478.906250	-65.651543
4565.039063	-63.979027
4651.171875	-63.775192
4737.304688	-65.282700
4823.437500	-66.252998
4909.570313	-66.710411
4995.703125	-71.998306
5081.835938	-78.696999
5167.968750	-78.202927
5254.101563	-76.140450
5340.234375	-76.354065
5426.367188	-76.418709
5512.500000	-74.994980
5598.632813	-75.854958
5684.765625	-76.356575
5770.898438	-76.170265
5857.031250	-81.606079
5943.164063	-86.303513
6029.296875	-82.250641
6115.429688	-76.398277
6201.562500	-75.587944
6287.695313	-80.387337
6373.828125	-85.871071
6459.960938	-87.517494
6546.093750	-88.887970
6632.226563	-88.901398
6718.359375	-91.062874
6804.492188	-90.665558
6890.625000	-87.716255
6976.757813	-86.246918
7062.890625	-84.802498
7149.023438	-84.286980
7235.156250	-84.952759
7321.289063	-78.775764
7407.421875	-74.110893
7493.554688	-73.973457
7579.687500	-75.007271
7665.820313	-76.763489
7751.953125	-78.525017
7838.085938	-77.883583
7924.218750	-76.579765
8010.351563	-79.271904
8096.484375	-84.848083
8182.617188	-85.559227
8268.750000	-83.084846
8354.882813	-82.558029
8441.015625	-81.526939
8527.148438	-81.816704
8613.281250	-84.890182
8699.414063	-90.042511
8785.546875	-94.174896
8871.679688	-97.890671
8957.812500	-95.750694
9043.945313	-92.487572
9130.078125	-92.635330
9216.210938	-94.001572
9302.343750	-94.942993
9388.476563	-97.452614
9474.609375	-98.815315
9560.742188	-96.377731
9646.875000	-95.070053
9733.007813	-96.297234
9819.140625	-97.947556
9905.273438	-98.844086
9991.406250	-94.827110
10077.539063	-88.485901
10163.671875	-83.489059
10249.804688	-81.736092
10335.937500	-83.722107
10422.070313	-87.386459
10508.203125	-91.182182
10594.335938	-94.306480
10680.468750	-94.974800
10766.601563	-94.649040
10852.734375	-94.035080
10938.867188	-92.642052
11025.000000	-91.971985
11111.132813	-93.296638
11197.265625	-95.820030
11283.398438	-94.447983
11369.531250	-95.750313
11455.664063	-101.144814
11541.796875	-102.774033
11627.929688	-107.224342
11714.062500	-109.084053
11800.195313	-109.898293
11886.328125	-109.108376
11972.460938	-110.027771
12058.593750	-110.013168
12144.726563	-110.120209
12230.859375	-105.068573
12316.992188	-103.482735
12403.125000	-107.642693
12489.257813	-110.724030
12575.390625	-112.103188
12661.523438	-108.017685
12747.656250	-104.761055
12833.789063	-104.431786
12919.921875	-105.216324
13006.054688	-107.556328
13092.187500	-109.799927
13178.320313	-109.780426
13264.453125	-108.220566
13350.585938	-106.176353
13436.718750	-104.891098
13522.851563	-104.144478
13608.984375	-104.501343
13695.117188	-106.244659
13781.250000	-108.162987
13867.382813	-106.121513
13953.515625	-102.813324
14039.648438	-100.001022
14125.781250	-98.386925
14211.914063	-98.490540
14298.046875	-102.275581
14384.179688	-110.032722
14470.312500	-99.818504
14556.445313	-95.971222
14642.578125	-94.756363
14728.710938	-93.660751
14814.843750	-92.572411
14900.976563	-91.313156
14987.109375	-91.512169
15073.242188	-93.429070
15159.375000	-95.930290
15245.507813	-98.721603
15331.640625	-102.250717
15417.773438	-106.969284
15503.906250	-109.059540
15590.039063	-108.126320
15676.171875	-108.120529
15762.304688	-108.796791
15848.437500	-110.432175
15934.570313	-111.168365
16020.703125	-111.117340
16106.835938	-112.299377
16192.968750	-114.966179
16279.101563	-117.483330
16365.234375	-120.359566
16451.367188	-123.335655
16537.500000	-123.284935
16623.632813	-120.375610
16709.765625	-119.939194
16795.898438	-121.583557
16882.031250	-123.230423
16968.164063	-120.527481
17054.296875	-116.504425
17140.429688	-114.730888
17226.562500	-113.154968
17312.695313	-112.321014
17398.828125	-112.139130
17484.960938	-112.001007
17571.093750	-112.429329
17657.226563	-114.264404
17743.359375	-115.880936
17829.492188	-117.718903
17915.625000	-118.713943
18001.757813	-119.018486
18087.890625	-119.540047
18174.023438	-120.461624
18260.156250	-122.410500
18346.289063	-123.318260
18432.421875	-122.299675
18518.554688	-122.523109
18604.687500	-122.135979
18690.820313	-121.018845
18776.953125	-121.196671
18863.085938	-120.678406
18949.218750	-122.446884
19035.351563	-124.951271
19121.484375	-124.511620
19207.617188	-124.596909
19293.750000	-124.024071
19379.882813	-124.797783
19466.015625	-124.941193
19552.148438	-125.491776
19638.281250	-126.350082
19724.414063	-128.556686
19810.546875	-129.692795
19896.679688	-129.629669
19982.812500	-129.562469
20068.945313	-132.044952
20155.078125	-134.288605
20241.210938	-135.344803
20327.343750	-134.322128
20413.476563	-136.392075
20499.609375	-136.545319
20585.742188	-135.082565
20671.875000	-135.329041
20758.007813	-134.521713
20844.140625	-134.576233
20930.273438	-137.103699
21016.406250	-138.860275
21102.539063	-140.251541
21188.671875	-140.901093
21274.804688	-142.877991
21360.937500	-146.226761
21447.070313	-148.123352
21533.203125	-149.571640
21619.335938	-151.566956
21705.468750	-151.960571
21791.601563	-153.719437
21877.734375	-157.253265
21963.867188	-158.912552
