Frequency (Hz)	Level (dB)
86.132813	-59.884380
172.265625	-59.526115
258.398438	-63.018463
344.531250	-68.349159
430.664063	-71.873604
516.796875	-69.694351
602.929688	-68.942986
689.062500	-69.543098
775.195313	-69.815231
861.328125	-72.040489
947.460938	-74.523743
1033.593750	-76.410355
1119.726563	-76.056709
1205.859375	-73.257736
1291.992188	-71.328812
1378.125000	-59.155460
1464.257813	-55.885040
1550.390625	-59.119003
1636.523438	-65.118858
1722.656250	-73.118309
1808.789063	-78.863220
1894.921875	-80.631638
1981.054688	-75.150604
2067.187500	-72.587944
2153.320313	-71.870956
2239.453125	-72.757843
2325.585938	-70.859047
2411.718750	-64.695625
2497.851563	-62.568966
2583.984375	-68.359406
2670.117188	-68.637558
2756.250000	-68.194725
2842.382813	-70.782387
2928.515625	-71.651474
3014.648438	-72.263618
3100.781250	-73.318756
3186.914063	-74.791542
3273.046875	-76.759415
3359.179688	-80.031815
3445.312500	-74.081009
3531.445313	-68.355278
3617.578125	-62.426098
3703.710938	-61.521759
3789.843750	-66.441765
3875.976563	-72.716667
3962.109375	-72.970421
4048.242188	-70.118820
4134.375000	-66.452972
4220.507813	-65.639793
4306.640625	-68.087456
4392.773438	-71.967476
4478.906250	-75.954384
4565.039063	-80.731155
4651.171875	-78.720192
4737.304688	-77.479752
4823.437500	-71.774666
4909.570313	-71.927185
4995.703125	-76.327858
5081.835938	-75.297005
5167.968750	-74.489151
5254.101563	-78.040604
5340.234375	-81.166229
5426.367188	-77.011383
5512.500000	-80.023552
5598.632813	-82.772820
5684.765625	-79.974991
5770.898438	-78.680229
5857.031250	-78.160675
5943.164063	-81.099152
6029.296875	-87.174377
6115.429688	-85.318901
6201.562500	-84.465286
6287.695313	-92.651726
6373.828125	-84.762062
6459.960938	-78.829247
6546.093750	-79.327675
6632.226563	-81.457664
6718.359375	-82.578949
6804.492188	-90.148102
6890.625000	-83.150215
6976.757813	-78.833771
7062.890625	-80.380135
7149.023438	-84.350258
7235.156250	-84.503891
7321.289063	-81.966393
7407.421875	-80.834297
7493.554688	-84.757034
7579.687500	-87.051826
7665.820313	-78.377441
7751.953125	-73.726639
7838.085938	-71.210495
7924.218750	-69.681763
8010.351563	-70.255882
8096.484375	-74.705269
8182.617188	-84.289307
8268.750000	-93.119919
8354.882813	-94.188675
8441.015625	-91.055664
8527.148438	-92.115654
8613.281250	-94.122856
8699.414063	-96.164688
8785.546875	-103.025261
8871.679688	-106.062607
8957.812500	-99.465981
9043.945313	-95.696648
9130.078125	-95.447937
9216.210938	-87.802139
9302.343750	-82.566124
9388.476563	-82.083572
9474.609375	-84.266159
9560.742188	-89.927185
9646.875000	-89.332642
9733.007813	-86.921608
9819.140625	-86.347900
9905.273438	-83.779007
9991.406250	-82.883743
10077.539063	-84.922478
10163.671875	-81.028168
10249.804688	-78.603058
10335.937500	-81.012505
10422.070313	-85.978111
10508.203125	-88.125221
10594.335938	-90.702820
10680.468750	-96.550758
10766.601563	-100.785576
10852.734375	-99.562660
10938.867188	-93.691673
11025.000000	-87.156303
11111.132813	-83.970291
11197.265625	-83.547432
11283.398438	-84.891258
11369.531250	-86.846657
11455.664063	-89.545219
11541.796875	-91.811623
11627.929688	-92.520004
11714.062500	-97.072029
11800.195313	-105.832542
11886.328125	-97.894943
11972.460938	-101.295494
12058.593750	-101.161880
12144.726563	-103.106796
12230.859375	-109.487152
12316.992188	-102.511696
12403.125000	-106.739586
12489.257813	-107.954697
12575.390625	-103.072685
12661.523438	-102.879990
12747.656250	-103.258324
12833.789063	-103.094170
12919.921875	-106.699654
13006.054688	-112.945892
13092.187500	-114.089790
13178.320313	-113.321228
13264.453125	-110.902924
13350.585938	-109.279999
13436.718750	-110.873955
13522.851563	-112.242783
13608.984375	-112.429916
13695.117188	-119.214417
13781.250000	-111.097389
13867.382813	-107.663643
13953.515625	-105.440071
14039.648438	-104.731644
14125.781250	-101.452736
14211.914063	-98.259903
14298.046875	-98.336884
14384.179688	-98.159462
14470.312500	-97.230621
14556.445313	-97.604546
14642.578125	-100.200760
14728.710938	-102.534416
14814.843750	-104.811455
14900.976563	-109.807152
14987.109375	-102.637756
15073.242188	-101.047638
15159.375000	-102.111252
15245.507813	-102.410828
15331.640625	-103.578148
15417.773438	-108.438660
15503.906250	-106.034775
15590.039063	-106.918655
15676.171875	-113.772285
15762.304688	-112.822289
15848.437500	-117.532585
15934.570313	-114.076576
16020.703125	-119.788033
16106.835938	-118.692444
16192.968750	-114.684555
16279.101563	-115.348534
16365.234375	-118.472824
16451.367188	-117.573921
16537.500000	-116.793510
16623.632813	-120.838593
16709.765625	-127.015549
16795.898438	-122.667488
16882.031250	-122.334412
16968.164063	-121.421661
17054.296875	-120.085587
17140.429688	-117.740822
17226.562500	-117.262657
17312.695313	-118.614922
17398.828125	-122.340317
17484.960938	-125.776474
17571.093750	-121.965668
17657.226563	-119.401077
17743.359375	-121.114441
17829.492188	-124.597542
17915.625000	-125.482452
18001.757813	-124.800964
18087.890625	-123.703789
18174.023438	-125.698479
18260.156250	-125.970901
18346.289063	-125.679184
18432.421875	-125.107925
18518.554688	-123.992592
18604.687500	-124.722115
18690.820313	-125.784523
18776.953125	-124.837448
18863.085938	-127.683876
18949.218750	-129.360336
19035.351563	-126.344482
19121.484375	-124.957344
19207.617188	-126.639908
19293.750000	-127.049278
19379.882813	-128.749603
19466.015625	-127.017021
19552.148438	-125.488411
19638.281250	-128.677658
19724.414063	-129.897842
19810.546875	-128.471695
19896.679688	-127.369675
19982.812500	-129.929428
20068.945313	-133.847549
20155.078125	-132.889618
20241.210938	-132.674469
20327.343750	-134.174515
20413.476563	-133.617065
20499.609375	-134.221283
20585.742188	-136.435379
20671.875000	-139.233704
20758.007813	-140.045120
20844.140625	-142.064499
20930.273438	-141.900070
21016.406250	-141.402374
21102.539063	-143.577377
21188.671875	-146.982635
21274.804688	-149.689285
21360.937500	-149.215240
21447.070313	-149.077484
21533.203125	-151.333420
21619.335938	-154.763916
21705.468750	-155.105438
21791.601563	-155.060074
21877.734375	-156.661148
21963.867188	-157.345459
