Frequency (Hz)	Level (dB)
86.132813	-59.515415
172.265625	-60.278839
258.398438	-64.512901
344.531250	-66.894730
430.664063	-68.967880
516.796875	-69.467651
602.929688	-69.640846
689.062500	-70.655640
775.195313	-72.060074
861.328125	-74.567238
947.460938	-78.272423
1033.593750	-84.034599
1119.726563	-82.557701
1205.859375	-76.871696
1291.992188	-71.442337
1378.125000	-68.065086
1464.257813	-65.242249
1550.390625	-67.647293
1636.523438	-71.774010
1722.656250	-73.979118
1808.789063	-74.993767
1894.921875	-76.646194
1981.054688	-74.357330
2067.187500	-72.723053
2153.320313	-72.568619
2239.453125	-73.767578
2325.585938	-77.132469
2411.718750	-71.286034
2497.851563	-70.211868
2583.984375	-70.531685
2670.117188	-68.965179
2756.250000	-69.049667
2842.382813	-69.838203
2928.515625	-71.458015
3014.648438	-74.162003
3100.781250	-75.897011
3186.914063	-74.382912
3273.046875	-72.562019
3359.179688	-71.411514
3445.312500	-71.112404
3531.445313	-70.724022
3617.578125	-67.658363
3703.710938	-67.743340
3789.843750	-73.646973
3875.976563	-73.807426
3962.109375	-71.180099
4048.242188	-67.973038
4134.375000	-66.549095
4220.507813	-65.832405
4306.640625	-65.697571
4392.773438	-65.938034
4478.906250	-65.242302
4565.039063	-64.085861
4651.171875	-62.858242
4737.304688	-59.686069
4823.437500	-53.508987
4909.570313	-53.048622
4995.703125	-59.380211
5081.835938	-63.811455
5167.968750	-67.535606
5254.101563	-68.022675
5340.234375	-67.992050
5426.367188	-69.027985
5512.500000	-70.327911
5598.632813	-71.487274
5684.765625	-70.572662
5770.898438	-66.703377
5857.031250	-68.408760
5943.164063	-72.273079
6029.296875	-75.526428
6115.429688	-75.397598
6201.562500	-73.107513
6287.695313	-71.710968
6373.828125	-70.127907
6459.960938	-74.932991
6546.093750	-84.946136
6632.226563	-88.850372
6718.359375	-86.586899
6804.492188	-85.946518
6890.625000	-86.804001
6976.757813	-86.872490
7062.890625	-87.994186
7149.023438	-89.970985
7235.156250	-91.881172
7321.289063	-92.227180
7407.421875	-87.928154
7493.554688	-87.344231
7579.687500	-90.126251
7665.820313	-90.405807
7751.953125	-87.596237
7838.085938	-89.352707
7924.218750	-89.122627
8010.351563	-87.454842
8096.484375	-91.146088
8182.617188	-96.602844
8268.750000	-99.707726
8354.882813	-100.125473
8441.015625	-96.705971
8527.148438	-93.675003
8613.281250	-93.591461
8699.414063	-93.859810
8785.546875	-93.135277
8871.679688	-90.414894
8957.812500	-88.515968
9043.945313	-88.870361
9130.078125	-87.520958
9216.210938	-83.588280
9302.343750	-81.460533
9388.476563	-83.732109
9474.609375	-88.461548
9560.742188	-89.796066
9646.875000	-85.994957
9733.007813	-84.690094
9819.140625	-85.145210
9905.273438	-82.262299
9991.406250	-79.389320
10077.539063	-78.608459
10163.671875	-76.080750
10249.804688	-74.175064
10335.937500	-75.605942
10422.070313	-78.328178
10508.203125	-80.393379
10594.335938	-82.139748
10680.468750	-84.720284
10766.601563	-87.072151
10852.734375	-88.286530
10938.867188	-89.438789
11025.000000	-93.333687
11111.132813	-94.801498
11197.265625	-92.948860
11283.398438	-90.743340
11369.531250	-91.735992
11455.664063	-90.610794
11541.796875	-89.305977
11627.929688	-89.486153
11714.062500	-94.748222
11800.195313	-99.083328
11886.328125	-97.896828
11972.460938	-96.115723
12058.593750	-94.268639
12144.726563	-94.589760
12230.859375	-95.314514
12316.992188	-92.669395
12403.125000	-91.782272
12489.257813	-94.746277
12575.390625	-96.936081
12661.523438	-96.243057
12747.656250	-95.775551
12833.789063	-96.320984
12919.921875	-97.266113
13006.054688	-98.229012
13092.187500	-98.903404
13178.320313	-101.304840
13264.453125	-106.174873
13350.585938	-101.686501
13436.718750	-98.603058
13522.851563	-97.448090
13608.984375	-96.631668
13695.117188	-96.037338
13781.250000	-96.110435
13867.382813	-98.060822
13953.515625	-99.520981
14039.648438	-102.768250
14125.781250	-105.974739
14211.914063	-101.838310
14298.046875	-101.403908
14384.179688	-102.390236
14470.312500	-102.784393
14556.445313	-102.421921
14642.578125	-100.671417
14728.710938	-98.616592
14814.843750	-97.860268
14900.976563	-97.961479
14987.109375	-99.153534
15073.242188	-99.481697
15159.375000	-99.841118
15245.507813	-98.744316
15331.640625	-97.436867
15417.773438	-98.800446
15503.906250	-99.645988
15590.039063	-100.395409
15676.171875	-101.086845
15762.304688	-102.059021
15848.437500	-103.417564
15934.570313	-103.901245
16020.703125	-103.396759
16106.835938	-104.026939
16192.968750	-108.447197
16279.101563	-116.028297
16365.234375	-118.077599
16451.367188	-117.026268
16537.500000	-116.836250
16623.632813	-117.317276
16709.765625	-119.190529
16795.898438	-118.602837
16882.031250	-114.857033
16968.164063	-111.485069
17054.296875	-110.724037
17140.429688	-109.741905
17226.562500	-108.324120
17312.695313	-109.474922
17398.828125	-111.922646
17484.960938	-113.584152
17571.093750	-115.439079
17657.226563	-116.709015
17743.359375	-117.358269
17829.492188	-117.608635
17915.625000	-116.970604
18001.757813	-115.383430
18087.890625	-114.391808
18174.023438	-115.013161
18260.156250	-115.605263
18346.289063	-116.847038
18432.421875	-117.799088
18518.554688	-119.216866
18604.687500	-121.391624
18690.820313	-121.809341
18776.953125	-121.204941
18863.085938	-121.507607
18949.218750	-122.751770
19035.351563	-123.302956
19121.484375	-122.562584
19207.617188	-123.796989
19293.750000	-126.954567
19379.882813	-128.445999
19466.015625	-127.817268
19552.148438	-129.803055
19638.281250	-129.006561
19724.414063	-126.723579
19810.546875	-127.468391
19896.679688	-128.597916
19982.812500	-128.513748
20068.945313	-129.159805
20155.078125	-130.882050
20241.210938	-132.636154
20327.343750	-134.443085
20413.476563	-133.954773
20499.609375	-135.004410
20585.742188	-136.173141
20671.875000	-135.670074
20758.007813	-137.206680
20844.140625	-137.864197
20930.273438	-136.845398
21016.406250	-138.945709
21102.539063	-142.221741
21188.671875	-143.098740
21274.804688	-143.749222
21360.937500	-147.005325
21447.070313	-148.528885
21533.203125	-149.241943
21619.335938	-150.581345
21705.468750	-153.327042
21791.601563	-155.519531
21877.734375	-156.739731
21963.867188	-157.228912
