Frequency (Hz)	Level (dB)
86.132813	-47.979469
172.265625	-50.067112
258.398438	-55.405396
344.531250	-58.581528
430.664063	-61.387821
516.796875	-60.172749
602.929688	-58.918552
689.062500	-55.992130
775.195313	-57.346733
861.328125	-61.466202
947.460938	-64.029480
1033.593750	-66.216026
1119.726563	-64.398285
1205.859375	-62.381065
1291.992188	-58.918159
1378.125000	-48.574043
1464.257813	-45.282776
1550.390625	-51.175152
1636.523438	-56.509457
1722.656250	-58.892101
1808.789063	-57.153698
1894.921875	-59.429626
1981.054688	-52.584839
2067.187500	-54.816105
2153.320313	-65.485512
2239.453125	-67.639992
2325.585938	-67.651962
2411.718750	-62.392151
2497.851563	-60.805393
2583.984375	-62.284889
2670.117188	-66.064499
2756.250000	-70.436546
2842.382813	-70.901314
2928.515625	-68.105896
3014.648438	-67.455841
3100.781250	-67.979172
3186.914063	-69.312218
3273.046875	-69.652489
3359.179688	-68.896530
3445.312500	-70.484749
3531.445313	-63.754696
3617.578125	-53.518063
3703.710938	-51.893337
3789.843750	-58.559433
3875.976563	-64.071823
3962.109375	-64.934082
4048.242188	-66.462685
4134.375000	-64.787811
4220.507813	-65.231682
4306.640625	-68.347267
4392.773438	-71.163719
4478.906250	-71.915619
4565.039063	-73.118172
4651.171875	-72.208878
4737.304688	-70.718872
4823.437500	-67.575035
4909.570313	-67.036095
4995.703125	-71.817383
5081.835938	-73.750145
5167.968750	-68.641380
5254.101563	-68.210312
5340.234375	-72.394867
5426.367188	-75.528481
5512.500000	-76.818634
5598.632813	-74.512238
5684.765625	-72.020226
5770.898438	-68.646080
5857.031250	-65.966118
5943.164063	-68.926231
6029.296875	-76.244614
6115.429688	-74.847046
6201.562500	-74.306053
6287.695313	-74.155037
6373.828125	-70.795853
6459.960938	-65.397247
6546.093750	-66.709442
6632.226563	-72.497482
6718.359375	-72.239304
6804.492188	-74.057228
6890.625000	-80.148170
6976.757813	-82.347351
7062.890625	-81.453369
7149.023438	-85.220657
7235.156250	-77.180588
7321.289063	-74.698883
7407.421875	-77.525475
7493.554688	-76.384598
7579.687500	-73.472702
7665.820313	-71.949448
7751.953125	-75.053627
7838.085938	-71.312302
7924.218750	-71.968422
8010.351563	-75.529938
8096.484375	-80.480209
8182.617188	-81.909668
8268.750000	-79.992889
8354.882813	-76.975243
8441.015625	-77.753929
8527.148438	-81.122574
8613.281250	-82.101715
8699.414063	-80.936852
8785.546875	-81.068504
8871.679688	-82.887604
8957.812500	-88.791908
9043.945313	-89.192619
9130.078125	-86.929184
9216.210938	-85.686874
9302.343750	-86.347931
9388.476563	-88.877190
9474.609375	-88.886612
9560.742188	-88.611923
9646.875000	-89.944847
9733.007813	-93.177788
9819.140625	-88.464447
9905.273438	-82.840790
9991.406250	-80.145065
10077.539063	-81.459183
10163.671875	-83.247559
10249.804688	-83.350304
10335.937500	-85.246460
10422.070313	-87.567749
10508.203125	-90.800461
10594.335938	-91.667000
10680.468750	-93.797997
10766.601563	-99.584587
10852.734375	-97.438957
10938.867188	-90.680916
11025.000000	-86.903824
11111.132813	-85.454636
11197.265625	-84.121857
11283.398438	-83.425949
11369.531250	-84.119240
11455.664063	-89.188599
11541.796875	-88.269684
11627.929688	-89.429741
11714.062500	-93.599602
11800.195313	-93.295334
11886.328125	-94.238403
11972.460938	-96.959770
12058.593750	-93.062447
12144.726563	-91.726929
12230.859375	-95.933502
12316.992188	-99.073181
12403.125000	-99.848854
12489.257813	-96.277588
12575.390625	-92.519005
12661.523438	-94.121605
12747.656250	-96.504814
12833.789063	-96.313919
12919.921875	-95.979370
13006.054688	-100.062752
13092.187500	-100.112335
13178.320313	-97.828651
13264.453125	-99.758606
13350.585938	-100.730766
13436.718750	-98.480331
13522.851563	-98.191589
13608.984375	-98.758675
13695.117188	-102.392921
13781.250000	-101.986176
13867.382813	-96.503159
13953.515625	-93.983894
14039.648438	-92.300629
14125.781250	-93.742546
14211.914063	-98.649696
14298.046875	-93.457649
14384.179688	-91.908615
14470.312500	-94.935760
14556.445313	-92.204773
14642.578125	-90.324219
14728.710938	-93.397018
14814.843750	-93.889442
14900.976563	-92.471664
14987.109375	-94.433815
15073.242188	-95.897438
15159.375000	-93.851006
15245.507813	-93.329712
15331.640625	-93.106766
15417.773438	-92.347900
15503.906250	-91.911560
15590.039063	-92.610870
15676.171875	-94.532364
15762.304688	-98.427124
15848.437500	-101.825363
15934.570313	-100.294357
16020.703125	-99.600189
16106.835938	-101.837296
16192.968750	-101.006470
16279.101563	-97.831894
16365.234375	-97.390282
16451.367188	-95.796303
16537.500000	-93.046318
16623.632813	-91.148499
16709.765625	-92.471405
16795.898438	-90.987999
16882.031250	-92.017685
16968.164063	-94.148911
17054.296875	-93.616150
17140.429688	-92.997253
17226.562500	-92.936852
17312.695313	-93.583290
17398.828125	-95.270584
17484.960938	-96.520821
17571.093750	-95.158897
17657.226563	-94.048820
17743.359375	-93.415970
17829.492188	-92.894417
17915.625000	-94.816330
18001.757813	-96.836311
18087.890625	-96.868088
18174.023438	-95.368660
18260.156250	-93.863632
18346.289063	-92.591637
18432.421875	-93.803818
18518.554688	-95.725525
18604.687500	-96.018372
18690.820313	-94.851013
18776.953125	-96.293617
18863.085938	-95.709412
18949.218750	-94.165314
19035.351563	-94.197296
19121.484375	-96.239510
19207.617188	-96.389061
19293.750000	-95.887581
19379.882813	-97.070221
19466.015625	-97.430946
19552.148438	-98.722679
19638.281250	-102.928070
19724.414063	-103.180222
19810.546875	-100.673531
19896.679688	-103.359261
19982.812500	-110.205849
20068.945313	-112.512886
20155.078125	-115.284866
20241.210938	-111.447762
20327.343750	-109.160980
20413.476563	-108.737366
20499.609375	-107.049934
20585.742188	-107.379173
20671.875000	-109.459702
20758.007813	-115.133018
20844.140625	-121.756622
20930.273438	-117.215622
21016.406250	-115.651787
21102.539063	-119.173264
21188.671875	-125.263435
21274.804688	-127.071617
21360.937500	-127.995323
21447.070313	-129.084747
21533.203125	-129.159241
21619.335938	-128.931290
21705.468750	-131.453644
21791.601563	-135.780823
21877.734375	-146.187958
21963.867188	-146.485306
