Frequency (Hz)	Level (dB)
86.132813	-61.726692
172.265625	-58.418369
258.398438	-58.806660
344.531250	-61.005482
430.664063	-63.359638
516.796875	-64.754288
602.929688	-65.917770
689.062500	-67.218376
775.195313	-68.942062
861.328125	-71.148788
947.460938	-74.678688
1033.593750	-77.657494
1119.726563	-72.146584
1205.859375	-69.396255
1291.992188	-67.654236
1378.125000	-67.133224
1464.257813	-61.275993
1550.390625	-61.225483
1636.523438	-63.740105
1722.656250	-66.301605
1808.789063	-69.265030
1894.921875	-65.027702
1981.054688	-51.669674
2067.187500	-48.889412
2153.320313	-56.692387
2239.453125	-69.402763
2325.585938	-74.244301
2411.718750	-72.826462
2497.851563	-71.463959
2583.984375	-69.753838
2670.117188	-68.559799
2756.250000	-67.842674
2842.382813	-72.009781
2928.515625	-73.035789
3014.648438	-71.555580
3100.781250	-70.877769
3186.914063	-69.800369
3273.046875	-68.805344
3359.179688	-64.451759
3445.312500	-62.060726
3531.445313	-66.008881
3617.578125	-75.764656
3703.710938	-74.964027
3789.843750	-69.748489
3875.976563	-65.285385
3962.109375	-59.809353
4048.242188	-55.665310
4134.375000	-58.619053
4220.507813	-60.550785
4306.640625	-63.306080
4392.773438	-68.461899
4478.906250	-67.956085
4565.039063	-65.968430
4651.171875	-66.613159
4737.304688	-68.908226
4823.437500	-69.219337
4909.570313	-66.698158
4995.703125	-64.743607
5081.835938	-62.368813
5167.968750	-64.128143
5254.101563	-65.808929
5340.234375	-63.366035
5426.367188	-62.047291
5512.500000	-63.867287
5598.632813	-67.817451
5684.765625	-68.709862
5770.898438	-62.089005
5857.031250	-54.764526
5943.164063	-51.094578
6029.296875	-55.230988
6115.429688	-62.607319
6201.562500	-67.481125
6287.695313	-69.967003
6373.828125	-74.270256
6459.960938	-77.709305
6546.093750	-77.251404
6632.226563	-77.108391
6718.359375	-79.793129
6804.492188	-83.152016
6890.625000	-78.837273
6976.757813	-75.517014
7062.890625	-75.523293
7149.023438	-76.679672
7235.156250	-78.034019
7321.289063	-76.954193
7407.421875	-74.336075
7493.554688	-73.388351
7579.687500	-73.537674
7665.820313	-77.192055
7751.953125	-76.960022
7838.085938	-75.774223
7924.218750	-76.402504
8010.351563	-79.830551
8096.484375	-82.109146
8182.617188	-82.397285
8268.750000	-83.661446
8354.882813	-86.607315
8441.015625	-90.887253
8527.148438	-94.316673
8613.281250	-90.144150
8699.414063	-85.094452
8785.546875	-82.791168
8871.679688	-81.742821
8957.812500	-83.738213
9043.945313	-86.427116
9130.078125	-85.042107
9216.210938	-83.549057
9302.343750	-82.741440
9388.476563	-83.739578
9474.609375	-87.735374
9560.742188	-89.241577
9646.875000	-87.872726
9733.007813	-88.466942
9819.140625	-89.820244
9905.273438	-90.083923
9991.406250	-91.138191
10077.539063	-94.275169
10163.671875	-97.729218
10249.804688	-95.492622
10335.937500	-92.113708
10422.070313	-90.569336
10508.203125	-88.273262
10594.335938	-86.197792
10680.468750	-85.169319
10766.601563	-84.595535
10852.734375	-83.774872
10938.867188	-83.724495
11025.000000	-85.112816
11111.132813	-87.190460
11197.265625	-88.698967
11283.398438	-88.532532
11369.531250	-89.520561
11455.664063	-91.634964
11541.796875	-92.429176
11627.929688	-88.691147
11714.062500	-83.223892
11800.195313	-79.413063
11886.328125	-77.922256
11972.460938	-76.351410
12058.593750	-72.310471
12144.726563	-69.788300
12230.859375	-70.602280
12316.992188	-73.371780
12403.125000	-77.337959
12489.257813	-80.846558
12575.390625	-83.804611
12661.523438	-86.227982
12747.656250	-86.767258
12833.789063	-87.327263
12919.921875	-87.915680
13006.054688	-87.058952
13092.187500	-86.014748
13178.320313	-86.786827
13264.453125	-89.989929
13350.585938	-90.566467
13436.718750	-87.498207
13522.851563	-86.589783
13608.984375	-87.731934
13695.117188	-89.408943
13781.250000	-90.670013
13867.382813	-92.102135
13953.515625	-92.216011
14039.648438	-89.319031
14125.781250	-86.421738
14211.914063	-84.804581
14298.046875	-84.820702
14384.179688	-86.180809
14470.312500	-87.358780
14556.445313	-88.084312
14642.578125	-91.179955
14728.710938	-97.093315
14814.843750	-97.050011
14900.976563	-95.319748
14987.109375	-98.583702
15073.242188	-101.411461
15159.375000	-97.169250
15245.507813	-95.018929
15331.640625	-94.163071
15417.773438	-93.077248
15503.906250	-92.983391
15590.039063	-93.532051
15676.171875	-93.527229
15762.304688	-94.081459
15848.437500	-96.463844
15934.570313	-97.967125
16020.703125	-96.610001
16106.835938	-96.249168
16192.968750	-96.762230
16279.101563	-97.842728
16365.234375	-99.828346
16451.367188	-101.473137
16537.500000	-102.858139
16623.632813	-105.835777
16709.765625	-111.852997
16795.898438	-120.366905
16882.031250	-113.046593
16968.164063	-109.583405
17054.296875	-109.150146
17140.429688	-110.169212
17226.562500	-110.471939
17312.695313	-111.467651
17398.828125	-113.949600
17484.960938	-118.466995
17571.093750	-119.745224
17657.226563	-112.559143
17743.359375	-109.794548
17829.492188	-110.543976
17915.625000	-109.827858
18001.757813	-105.428734
18087.890625	-103.485672
18174.023438	-104.378693
18260.156250	-107.245293
18346.289063	-110.530441
18432.421875	-110.719818
18518.554688	-109.319633
18604.687500	-108.652039
18690.820313	-108.139008
18776.953125	-107.109688
18863.085938	-107.053566
18949.218750	-108.503159
19035.351563	-110.682053
19121.484375	-112.491470
19207.617188	-113.229111
19293.750000	-113.510323
19379.882813	-114.696999
19466.015625	-118.233971
19552.148438	-125.153259
19638.281250	-126.655411
19724.414063	-122.834259
19810.546875	-122.073441
19896.679688	-123.477875
19982.812500	-124.954720
20068.945313	-126.833832
20155.078125	-129.587402
20241.210938	-132.348526
20327.343750	-133.739151
20413.476563	-133.442444
20499.609375	-132.662216
20585.742188	-133.397964
20671.875000	-134.482590
20758.007813	-136.020233
20844.140625	-138.438110
20930.273438	-140.119797
21016.406250	-139.986267
21102.539063	-140.249771
21188.671875	-140.082703
21274.804688	-141.842468
21360.937500	-145.585846
21447.070313	-145.446426
21533.203125	-145.988968
21619.335938	-148.729324
21705.468750	-151.654922
21791.601563	-154.716110
21877.734375	-157.883743
21963.867188	-159.258469
