Frequency (Hz)	Level (dB)
86.132813	-52.141594
172.265625	-54.194885
258.398438	-59.640945
344.531250	-63.357349
430.664063	-64.673645
516.796875	-62.726730
602.929688	-62.096832
689.062500	-63.333004
775.195313	-64.990868
861.328125	-66.510216
947.460938	-67.875351
1033.593750	-63.258591
1119.726563	-58.496479
1205.859375	-57.565086
1291.992188	-58.254417
1378.125000	-60.112896
1464.257813	-63.703644
1550.390625	-65.619858
1636.523438	-67.312729
1722.656250	-63.002071
1808.789063	-58.768726
1894.921875	-60.381447
1981.054688	-61.085560
2067.187500	-52.938690
2153.320313	-50.126011
2239.453125	-53.404903
2325.585938	-63.071945
2411.718750	-66.310921
2497.851563	-71.352974
2583.984375	-69.126648
2670.117188	-61.254509
2756.250000	-58.425529
2842.382813	-58.757347
2928.515625	-60.673805
3014.648438	-64.391068
3100.781250	-71.657623
3186.914063	-75.293648
3273.046875	-70.299751
3359.179688	-63.632736
3445.312500	-64.851128
3531.445313	-68.355804
3617.578125	-62.159645
3703.710938	-60.033455
3789.843750	-56.865509
3875.976563	-51.689690
3962.109375	-52.500294
4048.242188	-61.672668
4134.375000	-50.750507
4220.507813	-45.721668
4306.640625	-48.259171
4392.773438	-57.722404
4478.906250	-61.043102
4565.039063	-60.881165
4651.171875	-58.029720
4737.304688	-57.511208
4823.437500	-57.640648
4909.570313	-55.669617
4995.703125	-46.714466
5081.835938	-42.244347
5167.968750	-43.920528
5254.101563	-49.386055
5340.234375	-56.302147
5426.367188	-63.661903
5512.500000	-67.680069
5598.632813	-64.756630
5684.765625	-67.562729
5770.898438	-66.536148
5857.031250	-65.597595
5943.164063	-63.450863
6029.296875	-63.523651
6115.429688	-67.995125
6201.562500	-64.028473
6287.695313	-56.319595
6373.828125	-56.533089
6459.960938	-63.908524
6546.093750	-65.506454
6632.226563	-63.427746
6718.359375	-64.803894
6804.492188	-69.636047
6890.625000	-71.215622
6976.757813	-71.922417
7062.890625	-72.679001
7149.023438	-74.536919
7235.156250	-69.413414
7321.289063	-64.554932
7407.421875	-61.859619
7493.554688	-64.228500
7579.687500	-69.173210
7665.820313	-78.337723
7751.953125	-71.538612
7838.085938	-68.962212
7924.218750	-68.935547
8010.351563	-66.850479
8096.484375	-65.362297
8182.617188	-65.715874
8268.750000	-67.134094
8354.882813	-68.942986
8441.015625	-72.974167
8527.148438	-77.594727
8613.281250	-78.562851
8699.414063	-79.690582
8785.546875	-79.725517
8871.679688	-80.149261
8957.812500	-79.725815
9043.945313	-75.276260
9130.078125	-67.106194
9216.210938	-61.962757
9302.343750	-58.099098
9388.476563	-58.737617
9474.609375	-63.384438
9560.742188	-66.005203
9646.875000	-68.595871
9733.007813	-72.748901
9819.140625	-71.793503
9905.273438	-71.040276
9991.406250	-71.630203
10077.539063	-71.485901
10163.671875	-69.311035
10249.804688	-67.553848
10335.937500	-66.911713
10422.070313	-69.772331
10508.203125	-68.247543
10594.335938	-62.521469
10680.468750	-59.113098
10766.601563	-59.913490
10852.734375	-64.620461
10938.867188	-69.970604
11025.000000	-76.114120
11111.132813	-81.500298
11197.265625	-76.204666
11283.398438	-77.047249
11369.531250	-86.329475
11455.664063	-86.023155
11541.796875	-80.654922
11627.929688	-79.593674
11714.062500	-81.641365
11800.195313	-82.433319
11886.328125	-78.667206
11972.460938	-70.007217
12058.593750	-66.224838
12144.726563	-66.279320
12230.859375	-69.662254
12316.992188	-72.571335
12403.125000	-74.225632
12489.257813	-76.718994
12575.390625	-80.065430
12661.523438	-83.040916
12747.656250	-87.544807
12833.789063	-95.113251
12919.921875	-96.787613
13006.054688	-90.668358
13092.187500	-85.440536
13178.320313	-82.972824
13264.453125	-82.425407
13350.585938	-80.390923
13436.718750	-79.584557
13522.851563	-80.155724
13608.984375	-82.823181
13695.117188	-87.245354
13781.250000	-92.047585
13867.382813	-87.812271
13953.515625	-85.966873
14039.648438	-82.996948
14125.781250	-78.309944
14211.914063	-76.334442
14298.046875	-78.838730
14384.179688	-80.903549
14470.312500	-82.003532
14556.445313	-85.461319
14642.578125	-87.726265
14728.710938	-91.059891
14814.843750	-89.666718
14900.976563	-84.347107
14987.109375	-82.806648
15073.242188	-82.477722
15159.375000	-85.830429
15245.507813	-83.375931
15331.640625	-79.772720
15417.773438	-76.661263
15503.906250	-75.854774
15590.039063	-76.042168
15676.171875	-73.476067
15762.304688	-72.147652
15848.437500	-74.902069
15934.570313	-81.656990
16020.703125	-90.148010
16106.835938	-86.477562
16192.968750	-87.249779
16279.101563	-80.856628
16365.234375	-80.595268
16451.367188	-79.840034
16537.500000	-80.050804
16623.632813	-79.525139
16709.765625	-79.492920
16795.898438	-80.782341
16882.031250	-79.847107
16968.164063	-79.995491
17054.296875	-81.392082
17140.429688	-82.620667
17226.562500	-84.448410
17312.695313	-85.462708
17398.828125	-83.400436
17484.960938	-80.882599
17571.093750	-78.948639
17657.226563	-79.250786
17743.359375	-81.618835
17829.492188	-87.062943
17915.625000	-90.193733
18001.757813	-82.963829
18087.890625	-82.242805
18174.023438	-82.649498
18260.156250	-82.198044
18346.289063	-80.717056
18432.421875	-80.714294
18518.554688	-82.625130
18604.687500	-84.873955
18690.820313	-86.255669
18776.953125	-88.890533
18863.085938	-89.117943
18949.218750	-93.487999
19035.351563	-95.067513
19121.484375	-91.574303
19207.617188	-91.721954
19293.750000	-92.020248
19379.882813	-95.409798
19466.015625	-102.073761
19552.148438	-98.368118
19638.281250	-93.693420
19724.414063	-92.605751
19810.546875	-92.464973
19896.679688	-94.364395
19982.812500	-96.034782
20068.945313	-97.650230
20155.078125	-101.471985
20241.210938	-100.702240
20327.343750	-102.586510
20413.476563	-106.142860
20499.609375	-106.079483
20585.742188	-107.908340
20671.875000	-105.718918
20758.007813	-106.915535
20844.140625	-112.859444
20930.273438	-120.345505
21016.406250	-118.437805
21102.539063	-117.308868
21188.671875	-114.918755
21274.804688	-117.697235
21360.937500	-117.833176
21447.070313	-122.338531
21533.203125	-129.914948
21619.335938	-132.338654
21705.468750	-131.300018
21791.601563	-129.054581
21877.734375	-134.181351
21963.867188	-141.329544
