Frequency (Hz)	Level (dB)
86.132813	-52.682667
172.265625	-53.644379
258.398438	-55.989895
344.531250	-58.556904
430.664063	-59.683754
516.796875	-62.058697
602.929688	-61.371330
689.062500	-61.840324
775.195313	-64.101128
861.328125	-67.420677
947.460938	-66.062019
1033.593750	-59.368416
1119.726563	-56.306301
1205.859375	-62.257309
1291.992188	-66.959991
1378.125000	-66.461464
1464.257813	-70.978165
1550.390625	-74.653702
1636.523438	-68.436874
1722.656250	-66.710663
1808.789063	-59.524151
1894.921875	-55.617901
1981.054688	-55.894516
2067.187500	-54.794659
2153.320313	-51.851715
2239.453125	-54.356922
2325.585938	-63.089603
2411.718750	-77.276794
2497.851563	-65.812057
2583.984375	-59.405903
2670.117188	-56.758396
2756.250000	-56.855522
2842.382813	-59.424786
2928.515625	-67.534561
3014.648438	-77.584007
3100.781250	-74.217995
3186.914063	-69.725052
3273.046875	-64.514488
3359.179688	-60.025108
3445.312500	-59.313766
3531.445313	-60.315609
3617.578125	-60.875137
3703.710938	-60.739017
3789.843750	-55.734184
3875.976563	-49.126625
3962.109375	-48.516418
4048.242188	-50.617973
4134.375000	-48.546421
4220.507813	-45.869587
4306.640625	-48.764694
4392.773438	-52.041695
4478.906250	-54.500538
4565.039063	-56.554554
4651.171875	-58.297596
4737.304688	-56.945015
4823.437500	-53.823898
4909.570313	-49.246552
4995.703125	-44.180565
5081.835938	-41.087208
5167.968750	-43.020020
5254.101563	-47.169964
5340.234375	-50.703308
5426.367188	-54.241222
5512.500000	-57.675480
5598.632813	-59.814026
5684.765625	-61.919098
5770.898438	-64.345772
5857.031250	-65.186714
5943.164063	-64.423363
6029.296875	-63.759605
6115.429688	-63.588657
6201.562500	-58.189240
6287.695313	-52.158680
6373.828125	-51.965954
6459.960938	-57.819839
6546.093750	-66.321304
6632.226563	-69.209717
6718.359375	-64.547737
6804.492188	-62.358334
6890.625000	-61.657051
6976.757813	-61.508125
7062.890625	-62.327702
7149.023438	-64.602028
7235.156250	-66.265648
7321.289063	-65.184120
7407.421875	-63.872040
7493.554688	-64.381912
7579.687500	-64.748955
7665.820313	-67.732826
7751.953125	-67.423027
7838.085938	-67.592484
7924.218750	-71.987816
8010.351563	-75.650467
8096.484375	-75.824097
8182.617188	-74.583305
8268.750000	-77.300720
8354.882813	-76.916702
8441.015625	-75.088745
8527.148438	-76.564056
8613.281250	-76.924530
8699.414063	-74.983337
8785.546875	-72.139366
8871.679688	-70.031731
8957.812500	-68.846802
9043.945313	-68.971588
9130.078125	-69.875160
9216.210938	-67.367981
9302.343750	-63.279926
9388.476563	-62.257408
9474.609375	-62.999271
9560.742188	-64.834450
9646.875000	-67.833397
9733.007813	-71.651237
9819.140625	-72.442459
9905.273438	-70.269897
9991.406250	-69.816017
10077.539063	-70.596008
10163.671875	-70.256592
10249.804688	-68.703903
10335.937500	-67.538300
10422.070313	-66.990395
10508.203125	-65.141075
10594.335938	-61.791992
10680.468750	-59.555061
10766.601563	-60.489750
10852.734375	-64.040230
10938.867188	-68.803940
11025.000000	-73.814255
11111.132813	-77.153160
11197.265625	-76.147743
11283.398438	-75.372597
11369.531250	-77.568977
11455.664063	-82.216934
11541.796875	-85.924400
11627.929688	-86.598488
11714.062500	-85.157959
11800.195313	-83.423920
11886.328125	-77.707542
11972.460938	-72.235519
12058.593750	-69.404831
12144.726563	-68.881279
12230.859375	-69.992836
12316.992188	-72.045143
12403.125000	-74.570724
12489.257813	-77.578873
12575.390625	-80.339119
12661.523438	-81.856323
12747.656250	-83.448494
12833.789063	-86.389740
12919.921875	-89.189407
13006.054688	-88.829964
13092.187500	-84.278023
13178.320313	-80.968857
13264.453125	-79.397987
13350.585938	-78.876343
13436.718750	-79.484802
13522.851563	-82.235794
13608.984375	-89.452774
13695.117188	-92.258453
13781.250000	-88.666000
13867.382813	-85.552032
13953.515625	-84.536858
14039.648438	-82.083130
14125.781250	-79.298920
14211.914063	-77.867439
14298.046875	-79.132454
14384.179688	-82.899239
14470.312500	-87.894333
14556.445313	-92.346764
14642.578125	-92.614288
14728.710938	-90.948418
14814.843750	-89.692238
14900.976563	-87.180885
14987.109375	-86.211853
15073.242188	-87.373238
15159.375000	-89.578514
15245.507813	-93.299255
15331.640625	-91.483597
15417.773438	-82.961655
15503.906250	-79.601402
15590.039063	-76.991631
15676.171875	-75.049751
15762.304688	-74.571877
15848.437500	-76.495285
15934.570313	-80.496758
16020.703125	-82.468925
16106.835938	-81.858719
16192.968750	-82.899300
16279.101563	-84.929207
16365.234375	-84.263672
16451.367188	-82.884766
16537.500000	-82.099449
16623.632813	-81.257782
16709.765625	-80.653015
16795.898438	-80.565002
16882.031250	-80.529922
16968.164063	-81.351486
17054.296875	-84.119873
17140.429688	-88.529457
17226.562500	-91.627457
17312.695313	-90.108826
17398.828125	-86.267601
17484.960938	-83.929482
17571.093750	-82.623650
17657.226563	-83.540825
17743.359375	-87.647743
17829.492188	-94.831261
17915.625000	-92.262978
18001.757813	-89.656204
18087.890625	-86.519966
18174.023438	-83.415131
18260.156250	-81.633194
18346.289063	-81.298424
18432.421875	-82.388901
18518.554688	-84.664413
18604.687500	-88.335960
18690.820313	-90.604805
18776.953125	-91.584564
18863.085938	-90.951866
18949.218750	-90.209724
19035.351563	-89.333359
19121.484375	-89.812584
19207.617188	-91.869888
19293.750000	-92.519173
19379.882813	-90.187454
19466.015625	-89.801994
19552.148438	-90.221352
19638.281250	-90.517975
19724.414063	-91.214973
19810.546875	-91.997231
19896.679688	-92.727432
19982.812500	-93.213936
20068.945313	-93.569695
20155.078125	-94.626625
20241.210938	-95.556564
20327.343750	-95.607246
20413.476563	-95.788010
20499.609375	-95.704933
20585.742188	-95.612671
20671.875000	-96.563980
20758.007813	-97.850983
20844.140625	-98.884003
20930.273438	-100.789398
21016.406250	-104.151070
21102.539063	-109.037582
21188.671875	-114.800621
21274.804688	-119.934715
21360.937500	-122.351730
21447.070313	-126.307816
21533.203125	-126.045883
21619.335938	-126.732674
21705.468750	-125.498680
21791.601563	-123.262856
21877.734375	-123.831818
21963.867188	-127.265556
