Frequency (Hz)	Level (dB)
86.132813	-59.750153
172.265625	-62.538139
258.398438	-64.413322
344.531250	-64.302231
430.664063	-66.860199
516.796875	-67.472260
602.929688	-65.237518
689.062500	-65.114861
775.195313	-65.445328
861.328125	-64.591530
947.460938	-65.761612
1033.593750	-68.125648
1119.726563	-61.162106
1205.859375	-57.473213
1291.992188	-56.228550
1378.125000	-57.083450
1464.257813	-59.996391
1550.390625	-63.160378
1636.523438	-60.697277
1722.656250	-55.514957
1808.789063	-52.760990
1894.921875	-54.933228
1981.054688	-61.203953
2067.187500	-55.474106
2153.320313	-55.717926
2239.453125	-60.995094
2325.585938	-59.277412
2411.718750	-54.240170
2497.851563	-53.823612
2583.984375	-58.524967
2670.117188	-62.236282
2756.250000	-64.975800
2842.382813	-70.697151
2928.515625	-66.124451
3014.648438	-62.034000
3100.781250	-56.405663
3186.914063	-54.330193
3273.046875	-56.179695
3359.179688	-58.398865
3445.312500	-57.638424
3531.445313	-60.294518
3617.578125	-69.992188
3703.710938	-64.451218
3789.843750	-62.301037
3875.976563	-61.782814
3962.109375	-61.483509
4048.242188	-63.108250
4134.375000	-66.943970
4220.507813	-70.681091
4306.640625	-69.913864
4392.773438	-69.952599
4478.906250	-63.469028
4565.039063	-56.859081
4651.171875	-56.812370
4737.304688	-60.703293
4823.437500	-63.227467
4909.570313	-64.273453
4995.703125	-67.013603
5081.835938	-67.386070
5167.968750	-65.964256
5254.101563	-62.341175
5340.234375	-60.408672
5426.367188	-61.927578
5512.500000	-67.170792
5598.632813	-72.010216
5684.765625	-65.559685
5770.898438	-60.709782
5857.031250	-61.136089
5943.164063	-65.110588
6029.296875	-70.745880
6115.429688	-68.587822
6201.562500	-66.858940
6287.695313	-65.236313
6373.828125	-66.006851
6459.960938	-68.776726
6546.093750	-74.181107
6632.226563	-66.237724
6718.359375	-62.678566
6804.492188	-62.666229
6890.625000	-63.635082
6976.757813	-63.151684
7062.890625	-63.151566
7149.023438	-68.433952
7235.156250	-71.254013
7321.289063	-63.986221
7407.421875	-63.388691
7493.554688	-63.114578
7579.687500	-65.576981
7665.820313	-69.489677
7751.953125	-60.003448
7838.085938	-57.526123
7924.218750	-59.338741
8010.351563	-63.888863
8096.484375	-64.857582
8182.617188	-64.303818
8268.750000	-64.247665
8354.882813	-65.754791
8441.015625	-69.632660
8527.148438	-77.048660
8613.281250	-83.827263
8699.414063	-75.446434
8785.546875	-68.389458
8871.679688	-65.787613
8957.812500	-66.632339
9043.945313	-71.092659
9130.078125	-76.265259
9216.210938	-77.473618
9302.343750	-80.680946
9388.476563	-87.521896
9474.609375	-79.973145
9560.742188	-82.367973
9646.875000	-88.928871
9733.007813	-82.659676
9819.140625	-81.391449
9905.273438	-79.136726
9991.406250	-75.470222
10077.539063	-72.603188
10163.671875	-71.742500
10249.804688	-73.187164
10335.937500	-76.369591
10422.070313	-82.899376
10508.203125	-91.796532
10594.335938	-97.500473
10680.468750	-89.405891
10766.601563	-82.619362
10852.734375	-81.477325
10938.867188	-81.365479
11025.000000	-78.172806
11111.132813	-75.861679
11197.265625	-73.478714
11283.398438	-71.285789
11369.531250	-70.954041
11455.664063	-72.454521
11541.796875	-73.876991
11627.929688	-74.260246
11714.062500	-76.419029
11800.195313	-77.201515
11886.328125	-76.561287
11972.460938	-78.125107
12058.593750	-80.201607
12144.726563	-83.162567
12230.859375	-75.544235
12316.992188	-72.340172
12403.125000	-71.936531
12489.257813	-71.881660
12575.390625	-72.986549
12661.523438	-76.576706
12747.656250	-77.873421
12833.789063	-76.221504
12919.921875	-76.430061
13006.054688	-77.911491
13092.187500	-79.214775
13178.320313	-79.746063
13264.453125	-82.310753
13350.585938	-86.336815
13436.718750	-85.068253
13522.851563	-82.113892
13608.984375	-79.581505
13695.117188	-78.446709
13781.250000	-79.641685
13867.382813	-82.740540
13953.515625	-87.274193
14039.648438	-87.903351
14125.781250	-89.566330
14211.914063	-95.394249
14298.046875	-89.271828
14384.179688	-85.481743
14470.312500	-85.478706
14556.445313	-89.902779
14642.578125	-91.889046
14728.710938	-93.677917
14814.843750	-89.178268
14900.976563	-88.733170
14987.109375	-86.037270
15073.242188	-84.685226
15159.375000	-83.598358
15245.507813	-83.720673
15331.640625	-89.895355
15417.773438	-95.669357
15503.906250	-92.130920
15590.039063	-93.292397
15676.171875	-91.384048
15762.304688	-87.268814
15848.437500	-87.268150
15934.570313	-89.750191
16020.703125	-87.146355
16106.835938	-85.893822
16192.968750	-87.747795
16279.101563	-91.186531
16365.234375	-92.891457
16451.367188	-89.713531
16537.500000	-86.725304
16623.632813	-87.784813
16709.765625	-94.013580
16795.898438	-94.200996
16882.031250	-89.513412
16968.164063	-89.243507
17054.296875	-94.486565
17140.429688	-103.361748
17226.562500	-95.845131
17312.695313	-90.819862
17398.828125	-89.745277
17484.960938	-90.953072
17571.093750	-88.461754
17657.226563	-85.822006
17743.359375	-86.759499
17829.492188	-91.101555
17915.625000	-96.399467
18001.757813	-100.545799
18087.890625	-90.698654
18174.023438	-85.348663
18260.156250	-85.268242
18346.289063	-90.661652
18432.421875	-103.285439
18518.554688	-98.977341
18604.687500	-100.394318
18690.820313	-97.669044
18776.953125	-90.985359
18863.085938	-91.866592
18949.218750	-98.964729
19035.351563	-93.654144
19121.484375	-89.175789
19207.617188	-89.232941
19293.750000	-92.972069
19379.882813	-98.223839
19466.015625	-96.660011
19552.148438	-92.895157
19638.281250	-92.131416
19724.414063	-94.743011
19810.546875	-101.548317
19896.679688	-109.059814
19982.812500	-102.647522
20068.945313	-100.222466
20155.078125	-102.642212
20241.210938	-103.309120
20327.343750	-104.413803
20413.476563	-104.366119
20499.609375	-102.130005
20585.742188	-103.902931
20671.875000	-112.688515
20758.007813	-116.573868
20844.140625	-112.833168
20930.273438	-114.576073
21016.406250	-123.754028
21102.539063	-117.658157
21188.671875	-116.278526
21274.804688	-124.998505
21360.937500	-119.790459
21447.070313	-114.939659
21533.203125	-115.955399
21619.335938	-121.181328
21705.468750	-127.659897
21791.601563	-131.289536
21877.734375	-138.876236
21963.867188	-134.118713
