Frequency (Hz)	Level (dB)
86.132813	-46.396969
172.265625	-49.331356
258.398438	-51.710789
344.531250	-53.998085
430.664063	-55.595009
516.796875	-56.530144
602.929688	-57.355438
689.062500	-58.415588
775.195313	-59.637398
861.328125	-61.324066
947.460938	-63.574131
1033.593750	-62.729836
1119.726563	-60.005520
1205.859375	-58.454063
1291.992188	-55.775681
1378.125000	-56.230206
1464.257813	-61.874565
1550.390625	-64.307487
1636.523438	-70.169159
1722.656250	-62.784176
1808.789063	-56.110302
1894.921875	-56.335018
1981.054688	-55.130722
2067.187500	-55.116062
2153.320313	-59.088234
2239.453125	-60.237682
2325.585938	-60.057529
2411.718750	-50.288879
2497.851563	-48.134071
2583.984375	-52.998978
2670.117188	-54.621796
2756.250000	-56.206909
2842.382813	-56.820564
2928.515625	-55.800758
3014.648438	-52.130104
3100.781250	-51.842072
3186.914063	-51.894291
3273.046875	-53.365902
3359.179688	-52.820343
3445.312500	-51.427284
3531.445313	-51.454868
3617.578125	-55.389168
3703.710938	-56.043022
3789.843750	-55.077160
3875.976563	-58.913395
3962.109375	-59.285259
4048.242188	-67.544327
4134.375000	-68.562340
4220.507813	-66.009972
4306.640625	-65.819702
4392.773438	-69.284821
4478.906250	-63.918484
4565.039063	-58.210056
4651.171875	-58.103916
4737.304688	-58.736252
4823.437500	-58.875893
4909.570313	-58.222481
4995.703125	-58.469982
5081.835938	-61.767654
5167.968750	-61.859676
5254.101563	-63.411137
5340.234375	-52.796772
5426.367188	-45.957481
5512.500000	-46.444141
5598.632813	-52.446877
5684.765625	-55.789616
5770.898438	-56.563671
5857.031250	-55.569134
5943.164063	-52.579567
6029.296875	-49.423988
6115.429688	-53.496059
6201.562500	-57.960514
6287.695313	-63.693340
6373.828125	-68.430031
6459.960938	-73.596123
6546.093750	-75.514488
6632.226563	-73.548180
6718.359375	-72.886887
6804.492188	-70.428497
6890.625000	-66.024719
6976.757813	-64.503136
7062.890625	-63.347485
7149.023438	-63.006710
7235.156250	-64.019699
7321.289063	-65.101898
7407.421875	-62.288334
7493.554688	-59.297642
7579.687500	-58.046375
7665.820313	-59.077122
7751.953125	-58.070908
7838.085938	-55.894787
7924.218750	-58.318180
8010.351563	-61.527077
8096.484375	-60.591099
8182.617188	-59.035450
8268.750000	-61.865044
8354.882813	-68.126167
8441.015625	-75.043373
8527.148438	-72.878723
8613.281250	-65.743881
8699.414063	-61.151844
8785.546875	-59.860455
8871.679688	-60.738316
8957.812500	-60.997223
9043.945313	-61.587681
9130.078125	-64.143036
9216.210938	-66.475922
9302.343750	-69.461319
9388.476563	-70.995071
9474.609375	-73.849731
9560.742188	-74.885086
9646.875000	-71.901642
9733.007813	-71.869141
9819.140625	-74.877731
9905.273438	-76.690941
9991.406250	-75.599159
10077.539063	-74.584023
10163.671875	-76.225838
10249.804688	-78.646210
10335.937500	-75.680916
10422.070313	-75.652328
10508.203125	-76.792313
10594.335938	-78.025963
10680.468750	-78.313858
10766.601563	-74.708763
10852.734375	-71.832420
10938.867188	-72.442444
11025.000000	-74.259750
11111.132813	-74.618233
11197.265625	-75.060104
11283.398438	-75.387543
11369.531250	-77.492554
11455.664063	-79.802811
11541.796875	-80.721260
11627.929688	-87.881607
11714.062500	-92.539040
11800.195313	-89.402695
11886.328125	-85.032562
11972.460938	-81.766479
12058.593750	-80.271118
12144.726563	-79.678436
12230.859375	-80.924606
12316.992188	-85.115700
12403.125000	-81.050682
12489.257813	-78.504478
12575.390625	-76.676308
12661.523438	-75.777252
12747.656250	-75.510994
12833.789063	-74.320152
12919.921875	-74.160751
13006.054688	-76.487411
13092.187500	-78.900490
13178.320313	-80.224968
13264.453125	-81.509285
13350.585938	-82.786880
13436.718750	-84.517097
13522.851563	-86.072205
13608.984375	-85.753593
13695.117188	-85.069878
13781.250000	-83.879799
13867.382813	-82.940079
13953.515625	-83.118576
14039.648438	-83.618179
14125.781250	-82.601547
14211.914063	-80.434219
14298.046875	-78.917397
14384.179688	-78.636124
14470.312500	-79.712456
14556.445313	-80.678185
14642.578125	-81.173820
14728.710938	-80.527611
14814.843750	-79.155350
14900.976563	-78.354057
14987.109375	-79.134560
15073.242188	-79.483894
15159.375000	-79.653130
15245.507813	-80.191444
15331.640625	-80.468651
15417.773438	-79.669250
15503.906250	-78.249596
15590.039063	-77.416695
15676.171875	-77.502052
15762.304688	-78.342514
15848.437500	-79.947983
15934.570313	-82.784698
16020.703125	-86.704407
16106.835938	-91.082535
16192.968750	-92.762886
16279.101563	-91.806641
16365.234375	-91.199867
16451.367188	-92.046150
16537.500000	-92.797668
16623.632813	-92.821846
16709.765625	-91.329758
16795.898438	-90.294479
16882.031250	-89.431267
16968.164063	-90.663559
17054.296875	-93.042854
17140.429688	-95.450653
17226.562500	-95.203178
17312.695313	-93.326408
17398.828125	-92.391418
17484.960938	-90.162849
17571.093750	-87.519104
17657.226563	-86.191650
17743.359375	-84.908371
17829.492188	-83.856361
17915.625000	-82.748924
18001.757813	-81.283241
18087.890625	-79.907379
18174.023438	-79.434593
18260.156250	-79.046288
18346.289063	-80.374542
18432.421875	-82.926392
18518.554688	-85.297096
18604.687500	-86.628281
18690.820313	-86.577881
18776.953125	-87.438118
18863.085938	-88.148376
18949.218750	-87.610641
19035.351563	-86.335159
19121.484375	-85.111786
19207.617188	-84.658882
19293.750000	-85.794640
19379.882813	-88.578827
19466.015625	-91.387642
19552.148438	-92.429688
19638.281250	-92.097656
19724.414063	-92.178207
19810.546875	-93.191032
19896.679688	-94.916092
19982.812500	-97.846527
20068.945313	-102.320969
20155.078125	-108.338951
20241.210938	-110.031883
20327.343750	-108.655380
20413.476563	-107.444382
20499.609375	-106.882652
20585.742188	-108.187698
20671.875000	-108.848351
20758.007813	-110.558296
20844.140625	-112.073021
20930.273438	-112.337456
21016.406250	-113.337685
21102.539063	-114.939522
21188.671875	-117.398293
21274.804688	-119.472557
21360.937500	-122.745537
21447.070313	-123.936256
21533.203125	-125.543793
21619.335938	-127.170868
21705.468750	-129.742462
21791.601563	-129.146790
21877.734375	-130.308380
21963.867188	-129.089020
