Frequency (Hz)	Level (dB)
86.132813	-61.264545
172.265625	-58.412796
258.398438	-60.539440
344.531250	-63.374283
430.664063	-65.324356
516.796875	-66.930862
602.929688	-68.414581
689.062500	-69.538338
775.195313	-71.201225
861.328125	-74.349525
947.460938	-76.906639
1033.593750	-74.631256
1119.726563	-71.186790
1205.859375	-68.995636
1291.992188	-69.482872
1378.125000	-70.394745
1464.257813	-71.016754
1550.390625	-72.094597
1636.523438	-75.017830
1722.656250	-75.230057
1808.789063	-79.761826
1894.921875	-77.438995
1981.054688	-66.626076
2067.187500	-62.687199
2153.320313	-64.973549
2239.453125	-69.175682
2325.585938	-74.320190
2411.718750	-68.111137
2497.851563	-65.419655
2583.984375	-69.290726
2670.117188	-72.159943
2756.250000	-73.211288
2842.382813	-76.765244
2928.515625	-79.054398
3014.648438	-80.120224
3100.781250	-80.566605
3186.914063	-78.131432
3273.046875	-75.967621
3359.179688	-67.038918
3445.312500	-65.937836
3531.445313	-68.887383
3617.578125	-68.875145
3703.710938	-72.739021
3789.843750	-85.416893
3875.976563	-75.103119
3962.109375	-69.420448
4048.242188	-61.544140
4134.375000	-58.196651
4220.507813	-60.182461
4306.640625	-60.891354
4392.773438	-63.106667
4478.906250	-67.571045
4565.039063	-70.890541
4651.171875	-72.640778
4737.304688	-76.609856
4823.437500	-78.838097
4909.570313	-78.006828
4995.703125	-76.824974
5081.835938	-75.123085
5167.968750	-74.034447
5254.101563	-71.091553
5340.234375	-72.251228
5426.367188	-77.917984
5512.500000	-80.879097
5598.632813	-83.067795
5684.765625	-80.141037
5770.898438	-78.939705
5857.031250	-81.064766
5943.164063	-78.222588
6029.296875	-75.826218
6115.429688	-76.672852
6201.562500	-78.158325
6287.695313	-79.617828
6373.828125	-82.643745
6459.960938	-89.679504
6546.093750	-81.853897
6632.226563	-78.575676
6718.359375	-78.746918
6804.492188	-82.404991
6890.625000	-84.515808
6976.757813	-77.111725
7062.890625	-75.060684
7149.023438	-77.106445
7235.156250	-78.510368
7321.289063	-76.842918
7407.421875	-73.896759
7493.554688	-69.555130
7579.687500	-65.969902
7665.820313	-66.655190
7751.953125	-69.825043
7838.085938	-74.765137
7924.218750	-80.729027
8010.351563	-83.973450
8096.484375	-83.329094
8182.617188	-85.201180
8268.750000	-90.691315
8354.882813	-96.200127
8441.015625	-96.000015
8527.148438	-89.895790
8613.281250	-88.064819
8699.414063	-87.715294
8785.546875	-86.350426
8871.679688	-85.506966
8957.812500	-87.172195
9043.945313	-91.420883
9130.078125	-96.073196
9216.210938	-95.592781
9302.343750	-93.527542
9388.476563	-92.875893
9474.609375	-90.780243
9560.742188	-88.951492
9646.875000	-89.747963
9733.007813	-93.779694
9819.140625	-98.191139
9905.273438	-98.251762
9991.406250	-98.089790
10077.539063	-99.295349
10163.671875	-97.119774
10249.804688	-92.065491
10335.937500	-88.745209
10422.070313	-85.433418
10508.203125	-82.100563
10594.335938	-80.419189
10680.468750	-80.981331
10766.601563	-81.975235
10852.734375	-82.341515
10938.867188	-84.127647
11025.000000	-86.276649
11111.132813	-87.996895
11197.265625	-88.929695
11283.398438	-88.870560
11369.531250	-87.778130
11455.664063	-87.017715
11541.796875	-86.495766
11627.929688	-85.140472
11714.062500	-84.227272
11800.195313	-83.542404
11886.328125	-82.039116
11972.460938	-81.151863
12058.593750	-81.079155
12144.726563	-81.633034
12230.859375	-85.504280
12316.992188	-90.485832
12403.125000	-91.312607
12489.257813	-89.117973
12575.390625	-88.877098
12661.523438	-91.270760
12747.656250	-96.756142
12833.789063	-110.337265
12919.921875	-99.990700
13006.054688	-95.169960
13092.187500	-94.585686
13178.320313	-95.970322
13264.453125	-94.559753
13350.585938	-91.373131
13436.718750	-89.826241
13522.851563	-90.005478
13608.984375	-91.410995
13695.117188	-93.458397
13781.250000	-94.744240
13867.382813	-94.483330
13953.515625	-94.957901
14039.648438	-97.892403
14125.781250	-103.510780
14211.914063	-100.344719
14298.046875	-97.117104
14384.179688	-96.021080
14470.312500	-94.870247
14556.445313	-93.438232
14642.578125	-93.750488
14728.710938	-94.844559
14814.843750	-93.800407
14900.976563	-93.009796
14987.109375	-93.027130
15073.242188	-93.913948
15159.375000	-95.213127
15245.507813	-95.485489
15331.640625	-96.883331
15417.773438	-98.056831
15503.906250	-94.759781
15590.039063	-91.949913
15676.171875	-89.971085
15762.304688	-89.327744
15848.437500	-90.623199
15934.570313	-93.237183
16020.703125	-95.304359
16106.835938	-96.742638
16192.968750	-99.134407
16279.101563	-102.944008
16365.234375	-105.966057
16451.367188	-105.414993
16537.500000	-104.649155
16623.632813	-104.687096
16709.765625	-105.654396
16795.898438	-108.126686
16882.031250	-114.102921
16968.164063	-119.307655
17054.296875	-117.150826
17140.429688	-115.928230
17226.562500	-114.460724
17312.695313	-113.794769
17398.828125	-115.341637
17484.960938	-115.219353
17571.093750	-113.856804
17657.226563	-115.454803
17743.359375	-118.362541
17829.492188	-118.672180
17915.625000	-119.125648
18001.757813	-117.916580
18087.890625	-116.108467
18174.023438	-115.802177
18260.156250	-116.220619
18346.289063	-117.384148
18432.421875	-118.185349
18518.554688	-117.306282
18604.687500	-116.826225
18690.820313	-117.080009
18776.953125	-118.024818
18863.085938	-120.093315
18949.218750	-121.932312
19035.351563	-123.276894
19121.484375	-124.856430
19207.617188	-126.045036
19293.750000	-126.649185
19379.882813	-126.961464
19466.015625	-126.272141
19552.148438	-127.320160
19638.281250	-128.265854
19724.414063	-127.801888
19810.546875	-129.698532
19896.679688	-132.833084
19982.812500	-133.646988
20068.945313	-133.289673
20155.078125	-133.249985
20241.210938	-134.040741
20327.343750	-135.584137
20413.476563	-136.898193
20499.609375	-136.357361
20585.742188	-136.961426
20671.875000	-137.287476
20758.007813	-139.499268
20844.140625	-140.849197
20930.273438	-142.991776
21016.406250	-142.771408
21102.539063	-143.865097
21188.671875	-144.621887
21274.804688	-145.981628
21360.937500	-148.175125
21447.070313	-148.702133
21533.203125	-149.904968
21619.335938	-151.830414
21705.468750	-153.052887
21791.601563	-152.688461
21877.734375	-153.482605
21963.867188	-155.347183
