Frequency (Hz)	Level (dB)
86.132813	-61.353195
172.265625	-57.969265
258.398438	-58.690647
344.531250	-61.684181
430.664063	-64.440453
516.796875	-65.647957
602.929688	-66.313446
689.062500	-68.095055
775.195313	-69.994637
861.328125	-73.363960
947.460938	-75.454262
1033.593750	-79.715950
1119.726563	-73.678726
1205.859375	-69.457855
1291.992188	-67.767502
1378.125000	-70.058174
1464.257813	-73.029137
1550.390625	-72.278511
1636.523438	-70.111092
1722.656250	-71.340103
1808.789063	-79.560760
1894.921875	-71.757225
1981.054688	-65.910774
2067.187500	-63.927540
2153.320313	-66.269142
2239.453125	-72.079666
2325.585938	-71.742706
2411.718750	-69.161568
2497.851563	-67.337891
2583.984375	-66.810913
2670.117188	-66.686150
2756.250000	-68.490189
2842.382813	-72.721504
2928.515625	-81.253006
3014.648438	-80.533852
3100.781250	-71.464317
3186.914063	-68.259422
3273.046875	-71.535416
3359.179688	-76.649658
3445.312500	-78.432266
3531.445313	-73.483162
3617.578125	-72.824539
3703.710938	-71.327896
3789.843750	-71.038773
3875.976563	-72.883568
3962.109375	-70.718948
4048.242188	-66.960472
4134.375000	-66.151588
4220.507813	-69.257629
4306.640625	-78.061569
4392.773438	-78.796989
4478.906250	-78.266716
4565.039063	-83.866684
4651.171875	-79.742500
4737.304688	-83.088257
4823.437500	-80.671471
4909.570313	-75.462135
4995.703125	-72.493767
5081.835938	-70.141251
5167.968750	-71.811424
5254.101563	-75.889801
5340.234375	-74.624687
5426.367188	-72.338837
5512.500000	-73.737892
5598.632813	-73.805977
5684.765625	-69.567833
5770.898438	-65.446976
5857.031250	-61.282299
5943.164063	-54.919846
6029.296875	-54.132973
6115.429688	-59.726814
6201.562500	-67.017143
6287.695313	-73.084679
6373.828125	-79.668030
6459.960938	-71.958023
6546.093750	-72.391052
6632.226563	-77.099602
6718.359375	-75.736610
6804.492188	-74.402977
6890.625000	-77.754211
6976.757813	-81.440094
7062.890625	-80.737358
7149.023438	-79.090416
7235.156250	-77.830490
7321.289063	-77.843163
7407.421875	-78.259689
7493.554688	-79.423676
7579.687500	-80.586685
7665.820313	-80.704094
7751.953125	-81.845894
7838.085938	-80.438606
7924.218750	-76.215729
8010.351563	-76.383781
8096.484375	-79.148369
8182.617188	-81.506119
8268.750000	-85.926682
8354.882813	-91.619415
8441.015625	-90.166954
8527.148438	-87.476837
8613.281250	-89.906631
8699.414063	-93.792252
8785.546875	-93.284943
8871.679688	-84.355881
8957.812500	-80.283470
9043.945313	-80.337784
9130.078125	-80.724197
9216.210938	-81.594635
9302.343750	-85.332176
9388.476563	-92.193291
9474.609375	-96.059227
9560.742188	-97.617142
9646.875000	-96.802879
9733.007813	-91.948547
9819.140625	-92.928696
9905.273438	-97.342033
9991.406250	-97.665962
10077.539063	-94.850777
10163.671875	-93.102837
10249.804688	-93.782082
10335.937500	-91.749374
10422.070313	-84.389374
10508.203125	-79.761543
10594.335938	-75.663322
10680.468750	-74.085144
10766.601563	-76.723656
10852.734375	-83.117569
10938.867188	-85.408989
11025.000000	-87.002464
11111.132813	-88.584984
11197.265625	-88.780556
11283.398438	-93.837898
11369.531250	-94.825539
11455.664063	-97.198555
11541.796875	-91.626335
11627.929688	-86.277458
11714.062500	-87.979843
11800.195313	-89.451843
11886.328125	-80.863907
11972.460938	-76.240372
12058.593750	-73.088081
12144.726563	-70.866508
12230.859375	-72.436699
12316.992188	-81.271149
12403.125000	-90.908890
12489.257813	-86.346115
12575.390625	-89.427895
12661.523438	-93.709549
12747.656250	-94.701881
12833.789063	-95.616219
12919.921875	-94.602951
13006.054688	-94.525375
13092.187500	-97.999268
13178.320313	-100.523994
13264.453125	-97.981842
13350.585938	-92.414223
13436.718750	-89.310410
13522.851563	-88.567924
13608.984375	-89.755150
13695.117188	-91.606682
13781.250000	-91.664238
13867.382813	-91.649010
13953.515625	-94.669830
14039.648438	-100.701096
14125.781250	-97.979675
14211.914063	-97.463402
14298.046875	-94.582657
14384.179688	-93.567497
14470.312500	-94.631752
14556.445313	-94.425484
14642.578125	-95.538651
14728.710938	-102.286438
14814.843750	-96.606438
14900.976563	-91.721680
14987.109375	-92.187218
15073.242188	-93.646706
15159.375000	-92.659576
15245.507813	-92.950447
15331.640625	-91.252708
15417.773438	-89.935867
15503.906250	-88.670425
15590.039063	-87.680679
15676.171875	-85.501366
15762.304688	-83.296371
15848.437500	-83.193939
15934.570313	-85.378174
16020.703125	-88.972412
16106.835938	-92.901840
16192.968750	-96.198944
16279.101563	-96.678513
16365.234375	-96.549393
16451.367188	-96.864639
16537.500000	-98.703674
16623.632813	-101.668152
16709.765625	-103.897011
16795.898438	-104.844864
16882.031250	-106.389412
16968.164063	-108.347458
17054.296875	-106.833611
17140.429688	-105.183144
17226.562500	-103.900024
17312.695313	-102.825066
17398.828125	-103.631477
17484.960938	-104.973320
17571.093750	-105.629059
17657.226563	-106.886818
17743.359375	-107.046364
17829.492188	-106.283325
17915.625000	-106.526077
18001.757813	-105.765266
18087.890625	-104.940536
18174.023438	-105.911911
18260.156250	-108.980614
18346.289063	-112.566475
18432.421875	-112.154831
18518.554688	-109.184135
18604.687500	-106.457855
18690.820313	-103.973648
18776.953125	-102.034760
18863.085938	-102.086479
18949.218750	-104.458061
19035.351563	-108.353966
19121.484375	-112.741821
19207.617188	-114.119644
19293.750000	-114.657761
19379.882813	-116.209396
19466.015625	-117.663643
19552.148438	-120.542084
19638.281250	-122.526802
19724.414063	-124.333740
19810.546875	-129.291855
19896.679688	-130.882584
19982.812500	-129.459915
20068.945313	-129.835129
20155.078125	-128.917847
20241.210938	-129.900253
20327.343750	-131.536575
20413.476563	-134.075500
20499.609375	-135.594772
20585.742188	-135.892944
20671.875000	-138.446426
20758.007813	-140.356216
20844.140625	-139.646393
20930.273438	-138.041122
21016.406250	-138.479172
21102.539063	-138.520935
21188.671875	-139.357788
21274.804688	-141.412140
21360.937500	-142.571365
21447.070313	-144.347916
21533.203125	-146.973114
21619.335938	-149.822815
21705.468750	-149.740860
21791.601563	-150.970108
21877.734375	-150.123627
21963.867188	-151.293915
