Frequency (Hz)	Level (dB)
86.132813	-54.429340
172.265625	-56.530811
258.398438	-58.018631
344.531250	-59.309280
430.664063	-60.413334
516.796875	-60.637135
602.929688	-60.910931
689.062500	-63.020226
775.195313	-69.135818
861.328125	-60.523682
947.460938	-55.598911
1033.593750	-60.011299
1119.726563	-71.605118
1205.859375	-66.333954
1291.992188	-60.407207
1378.125000	-58.448242
1464.257813	-58.356880
1550.390625	-58.734344
1636.523438	-59.106304
1722.656250	-60.953609
1808.789063	-61.683441
1894.921875	-61.593727
1981.054688	-59.428127
2067.187500	-56.657051
2153.320313	-55.998695
2239.453125	-56.324883
2325.585938	-56.096951
2411.718750	-58.642002
2497.851563	-63.799706
2583.984375	-64.610817
2670.117188	-64.997154
2756.250000	-67.191360
2842.382813	-69.420868
2928.515625	-69.221855
3014.648438	-65.343315
3100.781250	-59.630390
3186.914063	-55.497471
3273.046875	-55.879433
3359.179688	-58.592129
3445.312500	-59.227242
3531.445313	-61.086681
3617.578125	-64.453468
3703.710938	-64.860443
3789.843750	-69.620331
3875.976563	-63.513565
3962.109375	-56.018814
4048.242188	-55.934475
4134.375000	-56.100113
4220.507813	-58.488605
4306.640625	-61.826187
4392.773438	-65.993362
4478.906250	-70.127037
4565.039063	-74.329620
4651.171875	-73.586845
4737.304688	-76.810936
4823.437500	-85.592163
4909.570313	-78.596489
4995.703125	-73.706543
5081.835938	-72.454399
5167.968750	-73.508476
5254.101563	-74.223068
5340.234375	-74.198753
5426.367188	-74.526016
5512.500000	-76.791901
5598.632813	-86.661461
5684.765625	-75.686539
5770.898438	-71.360611
5857.031250	-69.265587
5943.164063	-65.416290
6029.296875	-65.460899
6115.429688	-70.976387
6201.562500	-75.596123
6287.695313	-77.908073
6373.828125	-80.899048
6459.960938	-75.012962
6546.093750	-74.131035
6632.226563	-76.204765
6718.359375	-77.916954
6804.492188	-76.870949
6890.625000	-76.875099
6976.757813	-78.653885
7062.890625	-77.800262
7149.023438	-75.227043
7235.156250	-75.457451
7321.289063	-75.187340
7407.421875	-73.156654
7493.554688	-70.635567
7579.687500	-69.783119
7665.820313	-72.060265
7751.953125	-75.684891
7838.085938	-82.021942
7924.218750	-85.822052
8010.351563	-80.887993
8096.484375	-76.146698
8182.617188	-75.158081
8268.750000	-75.867882
8354.882813	-78.504913
8441.015625	-80.935165
8527.148438	-80.712051
8613.281250	-81.529999
8699.414063	-83.767052
8785.546875	-86.295441
8871.679688	-84.922348
8957.812500	-83.668007
9043.945313	-82.086456
9130.078125	-83.935822
9216.210938	-89.585052
9302.343750	-85.708443
9388.476563	-81.783897
9474.609375	-83.679153
9560.742188	-82.932144
9646.875000	-79.146599
9733.007813	-81.412018
9819.140625	-85.995552
9905.273438	-79.955116
9991.406250	-78.837288
10077.539063	-78.869621
10163.671875	-77.291924
10249.804688	-75.450882
10335.937500	-73.462563
10422.070313	-73.214111
10508.203125	-73.540527
10594.335938	-72.096619
10680.468750	-70.695335
10766.601563	-71.094604
10852.734375	-73.217522
10938.867188	-74.667503
11025.000000	-73.921700
11111.132813	-74.835854
11197.265625	-78.244789
11283.398438	-79.467178
11369.531250	-81.652649
11455.664063	-80.928108
11541.796875	-77.016426
11627.929688	-74.872505
11714.062500	-72.185883
11800.195313	-68.837044
11886.328125	-67.625771
11972.460938	-69.074158
12058.593750	-71.126534
12144.726563	-68.312561
12230.859375	-66.482735
12316.992188	-67.799736
12403.125000	-70.721832
12489.257813	-73.886612
12575.390625	-81.105408
12661.523438	-81.736053
12747.656250	-77.022194
12833.789063	-77.170311
12919.921875	-78.448586
13006.054688	-80.400993
13092.187500	-87.791039
13178.320313	-83.293251
13264.453125	-78.548248
13350.585938	-79.180923
13436.718750	-80.561539
13522.851563	-80.978127
13608.984375	-83.535385
13695.117188	-83.205711
13781.250000	-81.328033
13867.382813	-82.746651
13953.515625	-87.583817
14039.648438	-91.457985
14125.781250	-95.835144
14211.914063	-92.128670
14298.046875	-87.531349
14384.179688	-86.058556
14470.312500	-87.232986
14556.445313	-91.289902
14642.578125	-95.931229
14728.710938	-88.591698
14814.843750	-84.826935
14900.976563	-85.977974
14987.109375	-85.486443
15073.242188	-83.198311
15159.375000	-82.907349
15245.507813	-87.697189
15331.640625	-86.771248
15417.773438	-81.814194
15503.906250	-81.951820
15590.039063	-83.665451
15676.171875	-83.789635
15762.304688	-81.923431
15848.437500	-82.682655
15934.570313	-86.217842
16020.703125	-85.738060
16106.835938	-85.375420
16192.968750	-88.901558
16279.101563	-95.942924
16365.234375	-96.059654
16451.367188	-93.480186
16537.500000	-90.173981
16623.632813	-85.506844
16709.765625	-83.885246
16795.898438	-85.133148
16882.031250	-87.917290
16968.164063	-91.730255
17054.296875	-95.921173
17140.429688	-96.419296
17226.562500	-95.805603
17312.695313	-98.142242
17398.828125	-98.617310
17484.960938	-92.513489
17571.093750	-90.943214
17657.226563	-92.310287
17743.359375	-100.125603
17829.492188	-99.256256
17915.625000	-92.872688
18001.757813	-88.777786
18087.890625	-85.798233
18174.023438	-85.181274
18260.156250	-86.449181
18346.289063	-87.702034
18432.421875	-89.030609
18518.554688	-91.465164
18604.687500	-92.361771
18690.820313	-94.124519
18776.953125	-101.204292
18863.085938	-107.510490
18949.218750	-104.316612
19035.351563	-104.087807
19121.484375	-106.748352
19207.617188	-101.243134
19293.750000	-96.267967
19379.882813	-95.023941
19466.015625	-97.345581
19552.148438	-102.379005
19638.281250	-106.757774
19724.414063	-102.255615
19810.546875	-99.174744
19896.679688	-98.812492
19982.812500	-100.038803
20068.945313	-103.823776
20155.078125	-107.824944
20241.210938	-106.786850
20327.343750	-110.578331
20413.476563	-111.202606
20499.609375	-108.356865
20585.742188	-109.050026
20671.875000	-111.456039
20758.007813	-117.660408
20844.140625	-112.780685
20930.273438	-108.868973
21016.406250	-109.776863
21102.539063	-114.249153
21188.671875	-119.910751
21274.804688	-122.769104
21360.937500	-123.466637
21447.070313	-123.461563
21533.203125	-129.089767
21619.335938	-138.408859
21705.468750	-140.991791
21791.601563	-134.588257
21877.734375	-131.391342
21963.867188	-129.822723
