Frequency (Hz)	Level (dB)
86.132813	-49.953278
172.265625	-52.974823
258.398438	-58.148926
344.531250	-61.395191
430.664063	-61.958794
516.796875	-61.481197
602.929688	-61.794868
689.062500	-62.392372
775.195313	-63.435417
861.328125	-65.387283
947.460938	-66.298347
1033.593750	-66.735733
1119.726563	-64.489708
1205.859375	-60.715824
1291.992188	-59.398582
1378.125000	-60.708153
1464.257813	-65.899399
1550.390625	-70.957405
1636.523438	-65.338036
1722.656250	-63.282104
1808.789063	-63.056416
1894.921875	-64.554810
1981.054688	-65.673988
2067.187500	-63.149181
2153.320313	-61.482571
2239.453125	-63.496353
2325.585938	-66.555962
2411.718750	-67.276436
2497.851563	-65.535522
2583.984375	-61.161396
2670.117188	-54.480396
2756.250000	-55.715515
2842.382813	-63.843937
2928.515625	-61.770275
3014.648438	-63.528469
3100.781250	-67.033463
3186.914063	-67.114624
3273.046875	-65.631020
3359.179688	-65.689087
3445.312500	-62.190361
3531.445313	-60.176571
3617.578125	-56.336876
3703.710938	-53.701881
3789.843750	-58.600765
3875.976563	-66.572487
3962.109375	-62.007668
4048.242188	-63.783081
4134.375000	-59.888302
4220.507813	-55.857868
4306.640625	-56.527905
4392.773438	-62.189400
4478.906250	-65.670761
4565.039063	-65.891243
4651.171875	-62.421425
4737.304688	-62.756725
4823.437500	-57.297188
4909.570313	-50.037189
4995.703125	-49.257824
5081.835938	-46.038155
5167.968750	-39.716595
5254.101563	-40.123817
5340.234375	-46.641087
5426.367188	-51.012798
5512.500000	-58.116547
5598.632813	-55.902210
5684.765625	-53.948330
5770.898438	-55.149658
5857.031250	-58.910580
5943.164063	-64.340759
6029.296875	-68.840851
6115.429688	-64.157448
6201.562500	-58.646244
6287.695313	-57.669540
6373.828125	-61.443905
6459.960938	-71.386688
6546.093750	-72.014725
6632.226563	-74.812775
6718.359375	-77.754578
6804.492188	-74.421700
6890.625000	-69.565735
6976.757813	-67.846359
7062.890625	-68.840340
7149.023438	-71.808578
7235.156250	-76.766495
7321.289063	-82.814392
7407.421875	-75.569443
7493.554688	-70.489265
7579.687500	-67.641296
7665.820313	-62.399338
7751.953125	-58.453728
7838.085938	-56.797676
7924.218750	-59.311291
8010.351563	-66.574860
8096.484375	-70.283646
8182.617188	-78.967003
8268.750000	-74.149246
8354.882813	-76.133423
8441.015625	-78.385078
8527.148438	-75.713951
8613.281250	-74.888283
8699.414063	-77.311592
8785.546875	-82.363159
8871.679688	-80.954193
8957.812500	-76.956085
9043.945313	-76.287041
9130.078125	-67.918663
9216.210938	-65.112679
9302.343750	-67.547333
9388.476563	-72.524773
9474.609375	-73.061203
9560.742188	-73.066597
9646.875000	-75.583931
9733.007813	-78.109108
9819.140625	-74.564728
9905.273438	-74.728935
9991.406250	-75.999252
10077.539063	-73.683548
10163.671875	-70.777069
10249.804688	-69.383583
10335.937500	-69.555656
10422.070313	-66.889069
10508.203125	-63.275944
10594.335938	-58.724037
10680.468750	-55.535309
10766.601563	-57.951801
10852.734375	-65.064613
10938.867188	-66.313057
11025.000000	-69.691490
11111.132813	-73.009216
11197.265625	-76.579750
11283.398438	-78.321526
11369.531250	-79.882874
11455.664063	-79.132126
11541.796875	-82.073097
11627.929688	-83.531380
11714.062500	-76.111351
11800.195313	-71.761009
11886.328125	-72.588608
11972.460938	-74.008797
12058.593750	-74.108429
12144.726563	-78.491447
12230.859375	-85.421974
12316.992188	-79.599762
12403.125000	-75.495186
12489.257813	-75.412476
12575.390625	-76.439468
12661.523438	-75.971397
12747.656250	-76.911736
12833.789063	-82.344292
12919.921875	-88.292831
13006.054688	-82.894997
13092.187500	-78.818672
13178.320313	-77.760155
13264.453125	-78.825943
13350.585938	-82.176613
13436.718750	-86.783211
13522.851563	-91.852280
13608.984375	-93.737572
13695.117188	-87.469925
13781.250000	-86.327103
13867.382813	-82.423302
13953.515625	-79.771782
14039.648438	-80.842995
14125.781250	-82.686378
14211.914063	-82.558380
14298.046875	-86.349342
14384.179688	-82.694809
14470.312500	-78.862160
14556.445313	-83.562119
14642.578125	-83.440994
14728.710938	-82.604515
14814.843750	-83.254059
14900.976563	-88.940437
14987.109375	-86.787743
15073.242188	-87.988052
15159.375000	-80.232956
15245.507813	-77.050270
15331.640625	-75.541153
15417.773438	-74.776360
15503.906250	-75.625656
15590.039063	-76.620056
15676.171875	-75.364357
15762.304688	-69.194626
15848.437500	-67.925735
15934.570313	-70.064102
16020.703125	-72.333397
16106.835938	-75.520164
16192.968750	-80.326164
16279.101563	-83.809013
16365.234375	-83.916031
16451.367188	-83.819382
16537.500000	-86.980637
16623.632813	-89.149315
16709.765625	-86.576385
16795.898438	-86.771027
16882.031250	-81.229584
16968.164063	-78.047256
17054.296875	-79.044281
17140.429688	-79.428932
17226.562500	-78.779373
17312.695313	-79.393204
17398.828125	-80.629356
17484.960938	-81.381966
17571.093750	-80.262993
17657.226563	-78.643997
17743.359375	-77.042953
17829.492188	-76.503311
17915.625000	-77.220062
18001.757813	-80.225502
18087.890625	-82.723267
18174.023438	-82.979080
18260.156250	-86.129333
18346.289063	-87.784988
18432.421875	-85.168968
18518.554688	-85.853401
18604.687500	-92.603790
18690.820313	-86.037979
18776.953125	-84.463951
18863.085938	-87.965538
18949.218750	-91.701942
19035.351563	-88.412910
19121.484375	-87.536285
19207.617188	-90.652740
19293.750000	-97.809814
19379.882813	-97.134651
19466.015625	-95.673172
19552.148438	-93.821198
19638.281250	-91.966583
19724.414063	-92.643272
19810.546875	-94.508728
19896.679688	-92.149139
19982.812500	-94.522316
20068.945313	-96.003555
20155.078125	-94.731644
20241.210938	-94.342285
20327.343750	-98.727295
20413.476563	-102.982132
20499.609375	-104.529762
20585.742188	-110.223160
20671.875000	-108.063164
20758.007813	-107.149040
20844.140625	-105.576843
20930.273438	-108.596169
21016.406250	-108.151794
21102.539063	-106.001549
21188.671875	-108.585602
21274.804688	-112.697594
21360.937500	-113.020561
21447.070313	-113.905563
21533.203125	-117.097832
21619.335938	-119.305504
21705.468750	-120.449471
21791.601563	-123.801865
21877.734375	-128.416275
21963.867188	-125.567207
