Frequency (Hz)	Level (dB)
86.132813	-52.511089
172.265625	-52.053974
258.398438	-54.003773
344.531250	-57.821106
430.664063	-58.314838
516.796875	-62.933239
602.929688	-61.626549
689.062500	-61.731831
775.195313	-61.771973
861.328125	-62.636402
947.460938	-62.452698
1033.593750	-56.706539
1119.726563	-49.084522
1205.859375	-46.923656
1291.992188	-50.506222
1378.125000	-53.967293
1464.257813	-55.319649
1550.390625	-57.400333
1636.523438	-61.274300
1722.656250	-69.126694
1808.789063	-62.254005
1894.921875	-63.658295
1981.054688	-72.139427
2067.187500	-58.414360
2153.320313	-53.126331
2239.453125	-55.046101
2325.585938	-59.726151
2411.718750	-62.981064
2497.851563	-63.075405
2583.984375	-61.202759
2670.117188	-59.317169
2756.250000	-59.956570
2842.382813	-63.927837
2928.515625	-60.338936
3014.648438	-62.698242
3100.781250	-61.554508
3186.914063	-58.069107
3273.046875	-62.343716
3359.179688	-67.908424
3445.312500	-72.562675
3531.445313	-68.912758
3617.578125	-61.165459
3703.710938	-60.151493
3789.843750	-63.346882
3875.976563	-64.498917
3962.109375	-62.214432
4048.242188	-57.520687
4134.375000	-50.484692
4220.507813	-50.166946
4306.640625	-53.429440
4392.773438	-56.322739
4478.906250	-59.131699
4565.039063	-58.784073
4651.171875	-60.849842
4737.304688	-55.507568
4823.437500	-49.126308
4909.570313	-49.840839
4995.703125	-58.923603
5081.835938	-65.689812
5167.968750	-72.585617
5254.101563	-67.012444
5340.234375	-65.938782
5426.367188	-65.829796
5512.500000	-67.797043
5598.632813	-71.264267
5684.765625	-73.218529
5770.898438	-73.953224
5857.031250	-72.249680
5943.164063	-70.792503
6029.296875	-66.527679
6115.429688	-65.056572
6201.562500	-66.235344
6287.695313	-65.128166
6373.828125	-67.122177
6459.960938	-71.836121
6546.093750	-67.874290
6632.226563	-67.036858
6718.359375	-69.271034
6804.492188	-73.520821
6890.625000	-69.907646
6976.757813	-65.518799
7062.890625	-65.365707
7149.023438	-67.227318
7235.156250	-70.127342
7321.289063	-75.606270
7407.421875	-75.379906
7493.554688	-70.373314
7579.687500	-64.826416
7665.820313	-61.322113
7751.953125	-61.378551
7838.085938	-65.735947
7924.218750	-73.295227
8010.351563	-75.700172
8096.484375	-72.783012
8182.617188	-72.258186
8268.750000	-73.546616
8354.882813	-76.648148
8441.015625	-81.953392
8527.148438	-85.765495
8613.281250	-88.937653
8699.414063	-86.227219
8785.546875	-81.986313
8871.679688	-81.305809
8957.812500	-83.502792
9043.945313	-79.956161
9130.078125	-74.490257
9216.210938	-73.529015
9302.343750	-77.488121
9388.476563	-83.704109
9474.609375	-74.964355
9560.742188	-75.153351
9646.875000	-78.937729
9733.007813	-83.211800
9819.140625	-75.325134
9905.273438	-71.018944
9991.406250	-67.514832
10077.539063	-63.075630
10163.671875	-62.612598
10249.804688	-66.974808
10335.937500	-73.051712
10422.070313	-76.447525
10508.203125	-82.338013
10594.335938	-85.338669
10680.468750	-85.828476
10766.601563	-91.445709
10852.734375	-91.531654
10938.867188	-96.105690
11025.000000	-91.284309
11111.132813	-88.823860
11197.265625	-85.459564
11283.398438	-85.033867
11369.531250	-83.927750
11455.664063	-84.961266
11541.796875	-91.545334
11627.929688	-91.761024
11714.062500	-87.150879
11800.195313	-83.693130
11886.328125	-84.642662
11972.460938	-85.641899
12058.593750	-85.431282
12144.726563	-87.831673
12230.859375	-90.942223
12316.992188	-93.602074
12403.125000	-97.396942
12489.257813	-96.717697
12575.390625	-99.392059
12661.523438	-94.740074
12747.656250	-92.995262
12833.789063	-92.557137
12919.921875	-90.552834
13006.054688	-92.393356
13092.187500	-96.863144
13178.320313	-98.594757
13264.453125	-97.452850
13350.585938	-96.424026
13436.718750	-97.335472
13522.851563	-97.643684
13608.984375	-95.453255
13695.117188	-95.610573
13781.250000	-92.680222
13867.382813	-89.157585
13953.515625	-85.062103
14039.648438	-84.888191
14125.781250	-86.838959
14211.914063	-90.863792
14298.046875	-93.274658
14384.179688	-86.458809
14470.312500	-87.433266
14556.445313	-93.363129
14642.578125	-97.180466
14728.710938	-102.477234
14814.843750	-105.480431
14900.976563	-105.564301
14987.109375	-98.131714
15073.242188	-98.118507
15159.375000	-98.915321
15245.507813	-94.582855
15331.640625	-91.470284
15417.773438	-92.635086
15503.906250	-99.278557
15590.039063	-95.383301
15676.171875	-91.367851
15762.304688	-97.785156
15848.437500	-92.813507
15934.570313	-86.963905
16020.703125	-86.429657
16106.835938	-86.788063
16192.968750	-87.681137
16279.101563	-89.878845
16365.234375	-93.073677
16451.367188	-99.487297
16537.500000	-103.901443
16623.632813	-95.353523
16709.765625	-90.266479
16795.898438	-91.429794
16882.031250	-102.483566
16968.164063	-94.419395
17054.296875	-92.296799
17140.429688	-94.598030
17226.562500	-98.201775
17312.695313	-100.431740
17398.828125	-100.941490
17484.960938	-101.914314
17571.093750	-105.848480
17657.226563	-109.389915
17743.359375	-104.789215
17829.492188	-106.168465
17915.625000	-105.552673
18001.757813	-104.563828
18087.890625	-108.576790
18174.023438	-109.220276
18260.156250	-104.127068
18346.289063	-103.735374
18432.421875	-103.623993
18518.554688	-107.659828
18604.687500	-107.384918
18690.820313	-105.697090
18776.953125	-107.991150
18863.085938	-112.210381
18949.218750	-107.594307
19035.351563	-110.470444
19121.484375	-112.207771
19207.617188	-106.512573
19293.750000	-105.451721
19379.882813	-103.866364
19466.015625	-102.005318
19552.148438	-102.588234
19638.281250	-105.887642
19724.414063	-109.087975
19810.546875	-108.373283
19896.679688	-112.334030
19982.812500	-110.946091
20068.945313	-110.883369
20155.078125	-113.201828
20241.210938	-115.694542
20327.343750	-112.208740
20413.476563	-105.596970
20499.609375	-104.758293
20585.742188	-109.210373
20671.875000	-116.791817
20758.007813	-116.975128
20844.140625	-120.755104
20930.273438	-127.115097
21016.406250	-120.599045
21102.539063	-118.236923
21188.671875	-120.190636
21274.804688	-125.504715
21360.937500	-125.936729
21447.070313	-122.678627
21533.203125	-121.234787
21619.335938	-123.067177
21705.468750	-126.975563
21791.601563	-131.828964
21877.734375	-136.107788
21963.867188	-135.454391
