Frequency (Hz)	Level (dB)
86.132813	-49.406731
172.265625	-53.089870
258.398438	-55.304474
344.531250	-57.167301
430.664063	-58.383663
516.796875	-57.344425
602.929688	-56.811390
689.062500	-62.414581
775.195313	-63.690651
861.328125	-65.425369
947.460938	-66.027779
1033.593750	-65.231415
1119.726563	-54.934574
1205.859375	-48.117702
1291.992188	-50.363705
1378.125000	-55.443016
1464.257813	-56.993172
1550.390625	-59.260006
1636.523438	-60.970806
1722.656250	-60.658783
1808.789063	-57.288174
1894.921875	-50.995834
1981.054688	-48.002384
2067.187500	-53.936695
2153.320313	-56.712166
2239.453125	-58.438881
2325.585938	-60.659348
2411.718750	-64.136398
2497.851563	-64.377548
2583.984375	-60.155300
2670.117188	-57.669067
2756.250000	-58.286179
2842.382813	-60.371899
2928.515625	-61.763351
3014.648438	-62.991623
3100.781250	-65.600670
3186.914063	-65.664970
3273.046875	-64.115776
3359.179688	-62.317345
3445.312500	-59.932510
3531.445313	-55.813225
3617.578125	-55.498844
3703.710938	-59.228767
3789.843750	-58.365349
3875.976563	-57.713776
3962.109375	-62.193462
4048.242188	-57.658867
4134.375000	-53.221539
4220.507813	-55.101742
4306.640625	-60.104851
4392.773438	-58.956806
4478.906250	-55.424950
4565.039063	-51.498493
4651.171875	-53.509338
4737.304688	-52.443699
4823.437500	-45.985111
4909.570313	-46.010788
4995.703125	-53.605450
5081.835938	-57.972881
5167.968750	-60.575607
5254.101563	-59.587776
5340.234375	-59.110733
5426.367188	-58.402039
5512.500000	-57.456947
5598.632813	-55.172718
5684.765625	-54.345303
5770.898438	-59.704433
5857.031250	-59.135033
5943.164063	-61.678783
6029.296875	-62.645859
6115.429688	-66.510841
6201.562500	-66.290657
6287.695313	-65.165436
6373.828125	-67.669678
6459.960938	-66.191345
6546.093750	-62.456593
6632.226563	-62.373062
6718.359375	-63.145195
6804.492188	-63.337257
6890.625000	-67.509796
6976.757813	-65.425980
7062.890625	-64.139404
7149.023438	-59.674015
7235.156250	-59.763939
7321.289063	-66.050896
7407.421875	-72.002495
7493.554688	-73.857056
7579.687500	-71.557861
7665.820313	-69.791443
7751.953125	-66.985039
7838.085938	-65.738503
7924.218750	-68.595474
8010.351563	-72.354904
8096.484375	-68.019638
8182.617188	-66.995483
8268.750000	-70.418785
8354.882813	-74.681419
8441.015625	-79.400368
8527.148438	-81.006569
8613.281250	-80.714729
8699.414063	-81.543419
8785.546875	-86.348648
8871.679688	-85.834747
8957.812500	-77.019897
9043.945313	-75.493050
9130.078125	-80.112823
9216.210938	-81.831024
9302.343750	-81.546494
9388.476563	-84.869415
9474.609375	-86.284241
9560.742188	-80.892830
9646.875000	-76.736893
9733.007813	-74.707756
9819.140625	-72.585823
9905.273438	-71.483635
9991.406250	-68.571556
10077.539063	-63.182148
10163.671875	-62.160885
10249.804688	-65.850067
10335.937500	-69.840767
10422.070313	-72.749313
10508.203125	-75.319794
10594.335938	-76.406143
10680.468750	-76.426758
10766.601563	-78.511055
10852.734375	-79.222404
10938.867188	-78.575478
11025.000000	-78.918900
11111.132813	-82.651802
11197.265625	-88.370148
11283.398438	-88.064644
11369.531250	-83.953415
11455.664063	-83.952637
11541.796875	-84.235939
11627.929688	-84.075043
11714.062500	-83.298820
11800.195313	-84.151802
11886.328125	-85.824905
11972.460938	-87.240562
12058.593750	-84.973076
12144.726563	-85.617050
12230.859375	-87.699577
12316.992188	-83.936630
12403.125000	-81.675957
12489.257813	-82.546112
12575.390625	-86.437500
12661.523438	-92.632034
12747.656250	-94.511871
12833.789063	-92.518616
12919.921875	-92.032387
13006.054688	-93.763641
13092.187500	-93.773849
13178.320313	-95.194138
13264.453125	-95.410698
13350.585938	-92.699905
13436.718750	-91.200829
13522.851563	-92.832413
13608.984375	-91.647102
13695.117188	-90.718620
13781.250000	-90.001556
13867.382813	-86.767448
13953.515625	-86.664276
14039.648438	-88.346184
14125.781250	-88.221588
14211.914063	-86.697739
14298.046875	-92.362579
14384.179688	-92.332596
14470.312500	-92.730576
14556.445313	-94.599640
14642.578125	-92.535423
14728.710938	-92.678268
14814.843750	-86.889854
14900.976563	-86.638596
14987.109375	-90.078209
15073.242188	-88.983566
15159.375000	-86.926170
15245.507813	-88.867584
15331.640625	-88.863693
15417.773438	-90.960907
15503.906250	-92.820374
15590.039063	-94.130417
15676.171875	-90.727592
15762.304688	-90.809708
15848.437500	-93.574837
15934.570313	-96.675606
16020.703125	-93.409653
16106.835938	-90.544174
16192.968750	-89.950539
16279.101563	-92.530937
16365.234375	-97.532372
16451.367188	-98.866135
16537.500000	-99.692078
16623.632813	-99.195656
16709.765625	-99.517570
16795.898438	-98.186356
16882.031250	-96.951988
16968.164063	-92.761078
17054.296875	-95.124817
17140.429688	-99.491425
17226.562500	-100.633652
17312.695313	-104.037056
17398.828125	-103.725998
17484.960938	-100.110001
17571.093750	-97.519829
17657.226563	-95.483437
17743.359375	-94.858589
17829.492188	-95.846451
17915.625000	-100.118828
18001.757813	-99.976448
18087.890625	-98.977730
18174.023438	-99.079147
18260.156250	-102.229958
18346.289063	-101.728142
18432.421875	-102.340439
18518.554688	-97.988083
18604.687500	-94.599197
18690.820313	-97.262215
18776.953125	-98.455681
18863.085938	-96.472740
18949.218750	-99.215401
19035.351563	-106.645935
19121.484375	-108.709473
19207.617188	-103.605469
19293.750000	-103.394501
19379.882813	-108.658546
19466.015625	-104.620247
19552.148438	-102.632599
19638.281250	-105.259315
19724.414063	-109.303123
19810.546875	-103.715622
19896.679688	-103.783546
19982.812500	-106.271309
20068.945313	-106.627464
20155.078125	-110.786682
20241.210938	-108.988770
20327.343750	-109.524086
20413.476563	-109.515015
20499.609375	-113.959892
20585.742188	-114.622612
20671.875000	-117.801582
20758.007813	-120.630760
20844.140625	-120.173531
20930.273438	-121.503296
21016.406250	-117.439369
21102.539063	-115.078384
21188.671875	-116.232880
21274.804688	-120.024559
21360.937500	-128.048630
21447.070313	-131.239944
21533.203125	-131.432556
21619.335938	-135.142548
21705.468750	-134.120575
21791.601563	-138.424042
21877.734375	-140.421692
21963.867188	-138.292938
