Frequency (Hz)	Level (dB)
86.132813	-63.629288
172.265625	-59.473751
258.398438	-61.383327
344.531250	-64.149132
430.664063	-62.062222
516.796875	-64.495499
602.929688	-67.395447
689.062500	-69.304420
775.195313	-69.731392
861.328125	-70.444771
947.460938	-70.692627
1033.593750	-62.639297
1119.726563	-55.725487
1205.859375	-58.787243
1291.992188	-61.590866
1378.125000	-60.977398
1464.257813	-62.707634
1550.390625	-64.453140
1636.523438	-66.233582
1722.656250	-64.891533
1808.789063	-61.976383
1894.921875	-59.744572
1981.054688	-59.641453
2067.187500	-57.298275
2153.320313	-53.475033
2239.453125	-56.407169
2325.585938	-64.904541
2411.718750	-70.502129
2497.851563	-75.206169
2583.984375	-72.634613
2670.117188	-68.485634
2756.250000	-66.351608
2842.382813	-62.361809
2928.515625	-62.939735
3014.648438	-67.457932
3100.781250	-60.227455
3186.914063	-53.943577
3273.046875	-55.334408
3359.179688	-58.738220
3445.312500	-63.195278
3531.445313	-61.580959
3617.578125	-62.658882
3703.710938	-67.602806
3789.843750	-64.162888
3875.976563	-61.694271
3962.109375	-62.899326
4048.242188	-55.562866
4134.375000	-54.072445
4220.507813	-55.355179
4306.640625	-51.042156
4392.773438	-52.006622
4478.906250	-57.926086
4565.039063	-55.025497
4651.171875	-55.911324
4737.304688	-59.115887
4823.437500	-52.610760
4909.570313	-53.163258
4995.703125	-61.961006
5081.835938	-66.551727
5167.968750	-68.973427
5254.101563	-74.389053
5340.234375	-74.934586
5426.367188	-68.201401
5512.500000	-60.323387
5598.632813	-55.177525
5684.765625	-56.812397
5770.898438	-64.078323
5857.031250	-68.162079
5943.164063	-69.122002
6029.296875	-70.619637
6115.429688	-70.941826
6201.562500	-70.774483
6287.695313	-69.180229
6373.828125	-71.174332
6459.960938	-74.833191
6546.093750	-76.666809
6632.226563	-79.254875
6718.359375	-88.487915
6804.492188	-86.961563
6890.625000	-88.500465
6976.757813	-91.565735
7062.890625	-88.714516
7149.023438	-84.645584
7235.156250	-82.985764
7321.289063	-83.998283
7407.421875	-84.229202
7493.554688	-81.965111
7579.687500	-80.211502
7665.820313	-80.525757
7751.953125	-79.702408
7838.085938	-81.763222
7924.218750	-82.769615
8010.351563	-83.095932
8096.484375	-83.495956
8182.617188	-81.976685
8268.750000	-85.480423
8354.882813	-91.495529
8441.015625	-100.927681
8527.148438	-92.491196
8613.281250	-86.986076
8699.414063	-85.620171
8785.546875	-88.758430
8871.679688	-90.507111
8957.812500	-91.940094
9043.945313	-91.294106
9130.078125	-90.794151
9216.210938	-88.925880
9302.343750	-87.600388
9388.476563	-88.433662
9474.609375	-88.251923
9560.742188	-88.729919
9646.875000	-89.033737
9733.007813	-87.570358
9819.140625	-88.219582
9905.273438	-88.148857
9991.406250	-85.102341
10077.539063	-80.943100
10163.671875	-81.485168
10249.804688	-85.302292
10335.937500	-84.761932
10422.070313	-86.123421
10508.203125	-88.393845
10594.335938	-90.313957
10680.468750	-89.527939
10766.601563	-87.133842
10852.734375	-87.176598
10938.867188	-87.277214
11025.000000	-89.064941
11111.132813	-88.114769
11197.265625	-91.169655
11283.398438	-90.552895
11369.531250	-89.013458
11455.664063	-89.426491
11541.796875	-90.543205
11627.929688	-94.059593
11714.062500	-96.114807
11800.195313	-94.536224
11886.328125	-91.882942
11972.460938	-93.854942
12058.593750	-100.313873
12144.726563	-98.597580
12230.859375	-95.764664
12316.992188	-94.807564
12403.125000	-96.778694
12489.257813	-99.646599
12575.390625	-100.796127
12661.523438	-99.976913
12747.656250	-98.350136
12833.789063	-98.953224
12919.921875	-99.667740
13006.054688	-97.888794
13092.187500	-94.928261
13178.320313	-93.341057
13264.453125	-95.170967
13350.585938	-97.789001
13436.718750	-97.790558
13522.851563	-97.293518
13608.984375	-96.808823
13695.117188	-96.846924
13781.250000	-97.725342
13867.382813	-98.410187
13953.515625	-100.423347
14039.648438	-103.105789
14125.781250	-102.223984
14211.914063	-99.433144
14298.046875	-98.963715
14384.179688	-101.767654
14470.312500	-104.952377
14556.445313	-105.482567
14642.578125	-103.558746
14728.710938	-100.889870
14814.843750	-103.688850
14900.976563	-105.900871
14987.109375	-107.586205
15073.242188	-106.215523
15159.375000	-104.347610
15245.507813	-105.101494
15331.640625	-107.811546
15417.773438	-106.527191
15503.906250	-105.101357
15590.039063	-107.046623
15676.171875	-110.716675
15762.304688	-112.149864
15848.437500	-110.963509
15934.570313	-112.845581
16020.703125	-112.413483
16106.835938	-113.676544
16192.968750	-119.745712
16279.101563	-122.169250
16365.234375	-117.148537
16451.367188	-116.481705
16537.500000	-115.786018
16623.632813	-116.515594
16709.765625	-117.421829
16795.898438	-117.930717
16882.031250	-119.316513
16968.164063	-120.185753
17054.296875	-120.532455
17140.429688	-119.976166
17226.562500	-116.858185
17312.695313	-117.264145
17398.828125	-119.066071
17484.960938	-120.028526
17571.093750	-121.383110
17657.226563	-121.360542
17743.359375	-121.653946
17829.492188	-123.868385
17915.625000	-123.399742
18001.757813	-123.156837
18087.890625	-123.928391
18174.023438	-124.699234
18260.156250	-123.559631
18346.289063	-123.253700
18432.421875	-124.595970
18518.554688	-125.644241
18604.687500	-127.414413
18690.820313	-126.959351
18776.953125	-124.506126
18863.085938	-121.925728
18949.218750	-122.104706
19035.351563	-121.846481
19121.484375	-123.899185
19207.617188	-126.106400
19293.750000	-125.046341
19379.882813	-126.350098
19466.015625	-127.911324
19552.148438	-128.747116
19638.281250	-129.697083
19724.414063	-132.294891
19810.546875	-133.059845
19896.679688	-132.214859
19982.812500	-131.677475
20068.945313	-133.027756
20155.078125	-135.415985
20241.210938	-135.101563
20327.343750	-134.371811
20413.476563	-134.381805
20499.609375	-135.680557
20585.742188	-136.573654
20671.875000	-136.490631
20758.007813	-139.203018
20844.140625	-141.657227
20930.273438	-143.273727
21016.406250	-143.466217
21102.539063	-143.307449
21188.671875	-145.709778
21274.804688	-146.603073
21360.937500	-147.380280
21447.070313	-149.926041
21533.203125	-152.850632
21619.335938	-152.126923
21705.468750	-153.696762
21791.601563	-156.629501
21877.734375	-157.961777
21963.867188	-159.066849
