Frequency (Hz)	Level (dB)
86.132813	-48.662968
172.265625	-51.978935
258.398438	-55.138607
344.531250	-57.726665
430.664063	-58.979721
516.796875	-58.941204
602.929688	-59.349667
689.062500	-60.276524
775.195313	-61.511002
861.328125	-63.070007
947.460938	-65.326340
1033.593750	-67.669037
1119.726563	-59.041599
1205.859375	-52.189899
1291.992188	-54.339489
1378.125000	-57.121342
1464.257813	-58.630669
1550.390625	-61.590332
1636.523438	-65.104462
1722.656250	-64.925774
1808.789063	-62.670712
1894.921875	-57.676952
1981.054688	-53.166988
2067.187500	-56.133793
2153.320313	-59.624634
2239.453125	-61.376118
2325.585938	-62.660355
2411.718750	-65.363098
2497.851563	-70.362083
2583.984375	-74.230476
2670.117188	-72.967201
2756.250000	-67.672966
2842.382813	-58.982185
2928.515625	-56.131546
3014.648438	-60.066322
3100.781250	-64.022919
3186.914063	-65.583870
3273.046875	-73.507233
3359.179688	-75.821777
3445.312500	-70.410805
3531.445313	-63.059635
3617.578125	-61.549858
3703.710938	-56.667282
3789.843750	-47.999020
3875.976563	-46.984432
3962.109375	-52.530277
4048.242188	-51.450420
4134.375000	-47.021839
4220.507813	-48.859821
4306.640625	-51.757919
4392.773438	-52.468876
4478.906250	-53.009293
4565.039063	-53.080341
4651.171875	-50.605297
4737.304688	-46.448627
4823.437500	-40.049686
4909.570313	-40.261482
4995.703125	-47.096340
5081.835938	-52.087078
5167.968750	-55.412327
5254.101563	-57.499725
5340.234375	-60.559643
5426.367188	-63.113930
5512.500000	-54.819462
5598.632813	-47.039227
5684.765625	-46.917606
5770.898438	-51.430218
5857.031250	-55.413952
5943.164063	-59.642506
6029.296875	-59.615986
6115.429688	-56.983360
6201.562500	-55.211899
6287.695313	-55.653088
6373.828125	-60.371925
6459.960938	-64.554665
6546.093750	-62.809196
6632.226563	-62.155182
6718.359375	-62.495403
6804.492188	-61.716354
6890.625000	-61.874836
6976.757813	-61.939648
7062.890625	-62.523594
7149.023438	-62.021099
7235.156250	-60.360100
7321.289063	-62.508266
7407.421875	-67.054909
7493.554688	-70.800087
7579.687500	-72.872696
7665.820313	-69.938431
7751.953125	-68.334167
7838.085938	-69.559120
7924.218750	-71.533554
8010.351563	-71.904854
8096.484375	-67.640366
8182.617188	-64.129341
8268.750000	-64.696083
8354.882813	-65.327881
8441.015625	-65.933350
8527.148438	-68.625671
8613.281250	-71.546227
8699.414063	-75.040627
8785.546875	-79.291283
8871.679688	-82.235443
8957.812500	-83.595581
9043.945313	-87.912598
9130.078125	-86.020317
9216.210938	-83.340462
9302.343750	-83.485107
9388.476563	-82.208633
9474.609375	-80.150238
9560.742188	-77.982170
9646.875000	-76.606140
9733.007813	-75.874969
9819.140625	-76.881279
9905.273438	-76.789978
9991.406250	-72.021072
10077.539063	-68.222137
10163.671875	-68.290283
10249.804688	-71.709282
10335.937500	-75.811493
10422.070313	-80.122192
10508.203125	-83.157867
10594.335938	-85.227699
10680.468750	-83.132889
10766.601563	-79.324806
10852.734375	-77.278603
10938.867188	-74.681511
11025.000000	-74.168686
11111.132813	-75.323883
11197.265625	-76.641396
11283.398438	-78.084671
11369.531250	-79.653885
11455.664063	-81.973221
11541.796875	-85.192024
11627.929688	-86.930168
11714.062500	-85.749557
11800.195313	-85.963448
11886.328125	-87.211273
11972.460938	-86.189758
12058.593750	-84.114532
12144.726563	-83.120338
12230.859375	-82.524162
12316.992188	-81.692558
12403.125000	-79.471146
12489.257813	-78.272896
12575.390625	-79.064232
12661.523438	-80.521126
12747.656250	-82.750381
12833.789063	-84.323669
12919.921875	-83.327400
13006.054688	-82.413132
13092.187500	-81.895798
13178.320313	-83.621902
13264.453125	-88.023346
13350.585938	-92.644928
13436.718750	-95.689995
13522.851563	-97.057625
13608.984375	-100.468338
13695.117188	-98.631775
13781.250000	-94.106636
13867.382813	-93.063507
13953.515625	-92.706116
14039.648438	-88.658165
14125.781250	-89.704300
14211.914063	-92.568535
14298.046875	-97.259087
14384.179688	-98.067284
14470.312500	-96.716980
14556.445313	-94.752258
14642.578125	-91.753098
14728.710938	-90.044777
14814.843750	-89.322510
14900.976563	-90.070663
14987.109375	-91.673233
15073.242188	-92.057716
15159.375000	-92.213242
15245.507813	-91.854103
15331.640625	-90.600258
15417.773438	-88.618202
15503.906250	-88.044212
15590.039063	-87.703529
15676.171875	-89.251747
15762.304688	-92.048042
15848.437500	-92.587326
15934.570313	-90.217834
16020.703125	-87.460480
16106.835938	-86.616997
16192.968750	-86.368011
16279.101563	-86.725250
16365.234375	-87.783089
16451.367188	-89.308609
16537.500000	-92.100334
16623.632813	-94.067513
16709.765625	-96.575577
16795.898438	-97.264267
16882.031250	-97.942650
16968.164063	-97.467850
17054.296875	-96.176506
17140.429688	-94.824257
17226.562500	-94.449219
17312.695313	-95.461090
17398.828125	-95.651360
17484.960938	-95.670952
17571.093750	-96.301231
17657.226563	-98.021606
17743.359375	-98.371552
17829.492188	-97.523689
17915.625000	-97.203926
18001.757813	-97.830528
18087.890625	-93.838554
18174.023438	-90.787697
18260.156250	-89.990501
18346.289063	-90.478546
18432.421875	-90.860977
18518.554688	-90.771057
18604.687500	-91.039162
18690.820313	-90.727608
18776.953125	-89.364876
18863.085938	-87.838234
18949.218750	-87.001328
19035.351563	-87.423775
19121.484375	-88.657928
19207.617188	-90.407646
19293.750000	-91.470490
19379.882813	-91.422112
19466.015625	-90.567223
19552.148438	-89.955994
19638.281250	-90.866020
19724.414063	-92.551682
19810.546875	-94.704750
19896.679688	-97.614456
19982.812500	-100.385956
20068.945313	-101.502983
20155.078125	-103.287186
20241.210938	-106.677322
20327.343750	-108.282181
20413.476563	-109.259071
20499.609375	-108.465332
20585.742188	-109.110870
20671.875000	-110.102539
20758.007813	-110.892387
20844.140625	-112.966354
20930.273438	-115.679787
21016.406250	-116.521057
21102.539063	-115.829338
21188.671875	-117.129547
21274.804688	-118.580627
21360.937500	-120.278122
21447.070313	-124.933151
21533.203125	-129.052505
21619.335938	-131.267883
21705.468750	-130.686264
21791.601563	-131.833405
21877.734375	-132.533508
21963.867188	-134.828079
