Frequency (Hz)	Level (dB)
86.132813	-65.299980
172.265625	-61.438408
258.398438	-63.198509
344.531250	-67.073196
430.664063	-66.657494
516.796875	-71.566223
602.929688	-68.745483
689.062500	-71.445526
775.195313	-72.689133
861.328125	-73.906235
947.460938	-74.156578
1033.593750	-67.075874
1119.726563	-61.951077
1205.859375	-64.414200
1291.992188	-67.542351
1378.125000	-66.920387
1464.257813	-69.064987
1550.390625	-70.724968
1636.523438	-71.354813
1722.656250	-67.840118
1808.789063	-67.056908
1894.921875	-72.401253
1981.054688	-67.227615
2067.187500	-72.139114
2153.320313	-75.109428
2239.453125	-70.897476
2325.585938	-69.744850
2411.718750	-71.383835
2497.851563	-73.194519
2583.984375	-72.408058
2670.117188	-70.888992
2756.250000	-70.829407
2842.382813	-71.273186
2928.515625	-72.079910
3014.648438	-75.116859
3100.781250	-78.197762
3186.914063	-71.946724
3273.046875	-71.897301
3359.179688	-75.474304
3445.312500	-76.253624
3531.445313	-72.461426
3617.578125	-69.786949
3703.710938	-70.404129
3789.843750	-64.832138
3875.976563	-65.937454
3962.109375	-73.843094
4048.242188	-66.095215
4134.375000	-63.994556
4220.507813	-73.112595
4306.640625	-63.421791
4392.773438	-61.662357
4478.906250	-67.978447
4565.039063	-63.927670
4651.171875	-67.673714
4737.304688	-65.450035
4823.437500	-57.122360
4909.570313	-57.717278
4995.703125	-66.943886
5081.835938	-73.446091
5167.968750	-79.233337
5254.101563	-83.748940
5340.234375	-80.298691
5426.367188	-76.611183
5512.500000	-76.355759
5598.632813	-70.410034
5684.765625	-66.869255
5770.898438	-69.597908
5857.031250	-73.098312
5943.164063	-81.608101
6029.296875	-73.996193
6115.429688	-72.629166
6201.562500	-72.483612
6287.695313	-73.108574
6373.828125	-75.811981
6459.960938	-78.972786
6546.093750	-81.938545
6632.226563	-83.979393
6718.359375	-85.402779
6804.492188	-84.139351
6890.625000	-87.791565
6976.757813	-86.944344
7062.890625	-79.713501
7149.023438	-78.360664
7235.156250	-81.657806
7321.289063	-86.309296
7407.421875	-84.361122
7493.554688	-83.943314
7579.687500	-79.888924
7665.820313	-77.148148
7751.953125	-79.188118
7838.085938	-85.077217
7924.218750	-86.437241
8010.351563	-88.739929
8096.484375	-90.202530
8182.617188	-86.240303
8268.750000	-89.255875
8354.882813	-95.901054
8441.015625	-95.519485
8527.148438	-94.630219
8613.281250	-89.882637
8699.414063	-86.840179
8785.546875	-89.731384
8871.679688	-95.395546
8957.812500	-97.043022
9043.945313	-95.232574
9130.078125	-98.479256
9216.210938	-104.624969
9302.343750	-96.734566
9388.476563	-95.531288
9474.609375	-92.880127
9560.742188	-94.925568
9646.875000	-95.298973
9733.007813	-89.808128
9819.140625	-90.628609
9905.273438	-98.846443
9991.406250	-91.904037
10077.539063	-86.453880
10163.671875	-86.202362
10249.804688	-91.014275
10335.937500	-96.539299
10422.070313	-92.761734
10508.203125	-89.781342
10594.335938	-91.417313
10680.468750	-94.743896
10766.601563	-92.298439
10852.734375	-91.688431
10938.867188	-94.860916
11025.000000	-102.094391
11111.132813	-97.745636
11197.265625	-97.340836
11283.398438	-97.831116
11369.531250	-93.464088
11455.664063	-89.630486
11541.796875	-90.535805
11627.929688	-89.610435
11714.062500	-90.540482
11800.195313	-96.691978
11886.328125	-99.880333
11972.460938	-105.805534
12058.593750	-104.200172
12144.726563	-100.120979
12230.859375	-99.350914
12316.992188	-104.989166
12403.125000	-98.016640
12489.257813	-97.512947
12575.390625	-100.830101
12661.523438	-103.869835
12747.656250	-105.042763
12833.789063	-106.058189
12919.921875	-111.032143
13006.054688	-113.565277
13092.187500	-105.707466
13178.320313	-102.519836
13264.453125	-105.236618
13350.585938	-108.104691
13436.718750	-103.402885
13522.851563	-103.444466
13608.984375	-110.365288
13695.117188	-108.245766
13781.250000	-104.673843
13867.382813	-102.511543
13953.515625	-104.012108
14039.648438	-107.082306
14125.781250	-101.757866
14211.914063	-106.464424
14298.046875	-107.379318
14384.179688	-101.440811
14470.312500	-102.461670
14556.445313	-109.679382
14642.578125	-114.708694
14728.710938	-114.138206
14814.843750	-108.665581
14900.976563	-106.519196
14987.109375	-109.331215
15073.242188	-106.685699
15159.375000	-104.427391
15245.507813	-104.639099
15331.640625	-106.433296
15417.773438	-109.661469
15503.906250	-114.129852
15590.039063	-113.225319
15676.171875	-115.202568
15762.304688	-113.263290
15848.437500	-113.866196
15934.570313	-114.213631
16020.703125	-119.933304
16106.835938	-122.827026
16192.968750	-118.611000
16279.101563	-116.190216
16365.234375	-119.250275
16451.367188	-125.862282
16537.500000	-120.340439
16623.632813	-118.870590
16709.765625	-121.033409
16795.898438	-122.223045
16882.031250	-124.472031
16968.164063	-125.324867
17054.296875	-125.816238
17140.429688	-125.656563
17226.562500	-125.603004
17312.695313	-127.111855
17398.828125	-125.188927
17484.960938	-121.738274
17571.093750	-118.798927
17657.226563	-121.456673
17743.359375	-122.866508
17829.492188	-123.671844
17915.625000	-125.012573
18001.757813	-123.956070
18087.890625	-125.984047
18174.023438	-126.636848
18260.156250	-126.824242
18346.289063	-125.385963
18432.421875	-122.765892
18518.554688	-123.461487
18604.687500	-123.421814
18690.820313	-123.725281
18776.953125	-124.745193
18863.085938	-124.820999
18949.218750	-126.033447
19035.351563	-124.891968
19121.484375	-125.578804
19207.617188	-126.409554
19293.750000	-128.087433
19379.882813	-129.423721
19466.015625	-127.866104
19552.148438	-130.661301
19638.281250	-132.106354
19724.414063	-130.102203
19810.546875	-130.415649
19896.679688	-131.756424
19982.812500	-130.966812
20068.945313	-132.315338
20155.078125	-133.664993
20241.210938	-135.558243
20327.343750	-135.445694
20413.476563	-134.527344
20499.609375	-134.430832
20585.742188	-136.838669
20671.875000	-137.696854
20758.007813	-138.412872
20844.140625	-139.586655
20930.273438	-141.773865
21016.406250	-142.937378
21102.539063	-143.672318
21188.671875	-146.192444
21274.804688	-146.498138
21360.937500	-148.274414
21447.070313	-149.747971
21533.203125	-151.734375
21619.335938	-153.499146
21705.468750	-155.031662
21791.601563	-155.407379
21877.734375	-157.834427
21963.867188	-161.485275
