Frequency (Hz)	Level (dB)
86.132813	-61.962654
172.265625	-61.139458
258.398438	-61.585957
344.531250	-63.481812
430.664063	-65.364990
516.796875	-66.792725
602.929688	-68.247505
689.062500	-69.980286
775.195313	-70.817200
861.328125	-71.010712
947.460938	-71.854752
1033.593750	-69.513924
1119.726563	-61.016949
1205.859375	-55.835197
1291.992188	-57.737991
1378.125000	-60.162552
1464.257813	-62.491356
1550.390625	-65.635902
1636.523438	-71.267403
1722.656250	-71.180382
1808.789063	-66.229263
1894.921875	-66.983597
1981.054688	-67.701714
2067.187500	-68.557724
2153.320313	-64.407303
2239.453125	-65.286255
2325.585938	-68.232162
2411.718750	-74.695442
2497.851563	-78.477081
2583.984375	-71.441673
2670.117188	-68.452591
2756.250000	-69.081650
2842.382813	-67.710114
2928.515625	-65.068291
3014.648438	-66.023872
3100.781250	-67.593094
3186.914063	-68.998039
3273.046875	-74.650963
3359.179688	-66.426369
3445.312500	-61.985146
3531.445313	-58.784435
3617.578125	-58.501438
3703.710938	-62.610909
3789.843750	-63.879288
3875.976563	-62.622459
3962.109375	-64.048714
4048.242188	-58.570454
4134.375000	-53.130550
4220.507813	-54.804840
4306.640625	-58.110512
4392.773438	-59.003262
4478.906250	-57.521618
4565.039063	-57.511841
4651.171875	-61.592587
4737.304688	-58.047100
4823.437500	-50.888008
4909.570313	-51.124817
4995.703125	-58.274353
5081.835938	-69.440216
5167.968750	-70.900658
5254.101563	-66.319527
5340.234375	-64.410652
5426.367188	-62.735107
5512.500000	-60.061821
5598.632813	-57.573681
5684.765625	-58.827408
5770.898438	-64.110611
5857.031250	-68.021469
5943.164063	-72.715912
6029.296875	-76.086174
6115.429688	-80.110672
6201.562500	-83.188850
6287.695313	-79.204628
6373.828125	-76.989586
6459.960938	-76.388229
6546.093750	-74.978867
6632.226563	-73.807961
6718.359375	-72.942780
6804.492188	-72.098213
6890.625000	-73.008484
6976.757813	-73.973976
7062.890625	-76.215416
7149.023438	-79.630257
7235.156250	-81.409668
7321.289063	-82.846153
7407.421875	-84.435852
7493.554688	-80.556923
7579.687500	-77.557510
7665.820313	-80.758507
7751.953125	-91.198631
7838.085938	-90.950989
7924.218750	-92.122452
8010.351563	-88.798653
8096.484375	-86.978455
8182.617188	-87.936737
8268.750000	-92.010254
8354.882813	-98.630684
8441.015625	-99.285210
8527.148438	-97.284660
8613.281250	-101.266853
8699.414063	-106.972862
8785.546875	-103.641785
8871.679688	-100.869362
8957.812500	-95.675812
9043.945313	-92.059830
9130.078125	-90.445526
9216.210938	-87.502464
9302.343750	-83.986809
9388.476563	-81.957245
9474.609375	-81.430527
9560.742188	-81.961021
9646.875000	-81.753342
9733.007813	-79.775398
9819.140625	-78.672890
9905.273438	-77.174477
9991.406250	-72.522522
10077.539063	-68.857201
10163.671875	-68.621048
10249.804688	-71.861343
10335.937500	-76.617561
10422.070313	-79.618477
10508.203125	-81.389442
10594.335938	-85.198486
10680.468750	-90.314934
10766.601563	-91.778404
10852.734375	-89.924866
10938.867188	-85.644188
11025.000000	-82.642311
11111.132813	-82.069633
11197.265625	-83.398270
11283.398438	-85.167259
11369.531250	-85.652260
11455.664063	-86.543930
11541.796875	-88.350571
11627.929688	-90.767494
11714.062500	-92.310898
11800.195313	-93.361107
11886.328125	-95.627968
11972.460938	-95.982277
12058.593750	-95.183075
12144.726563	-94.577713
12230.859375	-92.640633
12316.992188	-90.424789
12403.125000	-87.622093
12489.257813	-86.872650
12575.390625	-88.111534
12661.523438	-90.888901
12747.656250	-94.268768
12833.789063	-98.609772
12919.921875	-98.887115
13006.054688	-96.311768
13092.187500	-97.395332
13178.320313	-101.450584
13264.453125	-104.817505
13350.585938	-105.494728
13436.718750	-105.284668
13522.851563	-102.628441
13608.984375	-99.284683
13695.117188	-97.532188
13781.250000	-97.694626
13867.382813	-98.820465
13953.515625	-99.878021
14039.648438	-103.078842
14125.781250	-102.380333
14211.914063	-99.516228
14298.046875	-100.001472
14384.179688	-101.432137
14470.312500	-99.728233
14556.445313	-98.671822
14642.578125	-100.661118
14728.710938	-101.108391
14814.843750	-98.549843
14900.976563	-98.218567
14987.109375	-98.161354
15073.242188	-97.176689
15159.375000	-96.419922
15245.507813	-97.298149
15331.640625	-99.354401
15417.773438	-100.504143
15503.906250	-100.382050
15590.039063	-101.011253
15676.171875	-103.172325
15762.304688	-107.060539
15848.437500	-104.848618
15934.570313	-101.910286
16020.703125	-101.848434
16106.835938	-102.870506
16192.968750	-103.588997
16279.101563	-105.372765
16365.234375	-107.805260
16451.367188	-108.740906
16537.500000	-109.374634
16623.632813	-110.732048
16709.765625	-113.182945
16795.898438	-115.568375
16882.031250	-117.005234
16968.164063	-119.511215
17054.296875	-121.927109
17140.429688	-120.483101
17226.562500	-119.677994
17312.695313	-121.466156
17398.828125	-125.084557
17484.960938	-123.822433
17571.093750	-122.321861
17657.226563	-122.257103
17743.359375	-123.640961
17829.492188	-122.164169
17915.625000	-122.421341
18001.757813	-122.340744
18087.890625	-121.658936
18174.023438	-123.985718
18260.156250	-124.624969
18346.289063	-124.003220
18432.421875	-123.442924
18518.554688	-122.859726
18604.687500	-122.158661
18690.820313	-123.391464
18776.953125	-127.301208
18863.085938	-124.258110
18949.218750	-120.849541
19035.351563	-118.131165
19121.484375	-116.227814
19207.617188	-115.027832
19293.750000	-114.761543
19379.882813	-115.349258
19466.015625	-116.638695
19552.148438	-118.922371
19638.281250	-121.943924
19724.414063	-125.213020
19810.546875	-129.537018
19896.679688	-132.430206
19982.812500	-132.028854
20068.945313	-132.122620
20155.078125	-131.572586
20241.210938	-133.704910
20327.343750	-133.976730
20413.476563	-134.166779
20499.609375	-135.118225
20585.742188	-138.508881
20671.875000	-140.367035
20758.007813	-139.464417
20844.140625	-139.482651
20930.273438	-140.900650
21016.406250	-143.171051
21102.539063	-143.875290
21188.671875	-143.494339
21274.804688	-145.177292
21360.937500	-147.428360
21447.070313	-149.055191
21533.203125	-150.661530
21619.335938	-153.445404
21705.468750	-153.453598
21791.601563	-154.865265
21877.734375	-156.574371
21963.867188	-157.962830
